Freq /Hz, Zr , Zi ; Name: 50_-5000
5.000000E+6;1.620040E+1;1.778110E+1
4.627078E+6;1.603460E+1;1.396180E+1
4.281971E+6;1.605330E+1;1.052660E+1
3.962602E+6;1.612830E+1;7.188040E+0
3.667054E+6;1.627560E+1;3.925630E+0
3.393549E+6;1.645200E+1;7.124390E-1
3.140444E+6;1.669970E+1;-2.452680E+0
2.906216E+6;1.698730E+1;-5.597830E+0
2.689457E+6;1.732910E+1;-8.752690E+0
2.488866E+6;1.771610E+1;-1.186300E+1
2.303236E+6;1.818150E+1;-1.503010E+1
2.131450E+6;1.867520E+1;-1.821360E+1
1.972477E+6;1.923480E+1;-2.145040E+1
1.825361E+6;1.985240E+1;-2.476170E+1
1.689218E+6;2.052070E+1;-2.814010E+1
1.563229E+6;2.125540E+1;-3.159870E+1
1.446636E+6;2.205320E+1;-3.518730E+1
1.338740E+6;2.291530E+1;-3.888530E+1
1.238891E+6;2.383850E+1;-4.272750E+1
1.146489E+6;2.483450E+1;-4.671710E+1
1.060979E+6;2.591850E+1;-5.088110E+1
9.818463E+5;2.707200E+1;-5.523670E+1
9.086159E+5;2.831370E+1;-5.979640E+1
8.408474E+5;2.964550E+1;-6.458680E+1
7.781333E+5;3.108080E+1;-6.963030E+1
7.200968E+5;3.261540E+1;-7.494040E+1
6.663888E+5;3.425910E+1;-8.053940E+1
6.166866E+5;3.603500E+1;-8.646440E+1
5.706914E+5;3.792830E+1;-9.272630E+1
5.281268E+5;3.996680E+1;-9.937160E+1
4.887368E+5;4.218860E+1;-1.064080E+2
4.522847E+5;4.455940E+1;-1.138690E+2
4.185513E+5;4.714780E+1;-1.218090E+2
3.873339E+5;4.995370E+1;-1.302370E+2
3.584449E+5;5.300820E+1;-1.392550E+2
3.317105E+5;5.630950E+1;-1.487560E+2
3.069701E+5;5.989790E+1;-1.588510E+2
2.840749E+5;6.380850E+1;-1.695740E+2
2.628874E+5;6.809300E+1;-1.809750E+2
2.432801E+5;7.277260E+1;-1.930490E+2
2.251352E+5;7.789230E+1;-2.058670E+2
2.083436E+5;8.350980E+1;-2.194680E+2
1.928044E+5;8.966990E+1;-2.338720E+2
1.784242E+5;9.644620E+1;-2.491010E+2
1.651166E+5;1.038600E+2;-2.652310E+2
1.528015E+5;1.120210E+2;-2.822420E+2
1.414049E+5;1.209590E+2;-3.001780E+2
1.308583E+5;1.308230E+2;-3.191100E+2
1.210983E+5;1.416900E+2;-3.390020E+2
1.120663E+5;1.535690E+2;-3.598640E+2
1.037079E+5;1.666630E+2;-3.817520E+2
9.597288E+4;1.810620E+2;-4.046520E+2
8.881481E+4;1.967710E+2;-4.285010E+2
8.219061E+4;2.140190E+2;-4.533040E+2
7.606048E+4;2.329450E+2;-4.790450E+2
7.038756E+4;2.535850E+2;-5.056610E+2
6.513774E+4;2.761130E+2;-5.331130E+2
6.027949E+4;3.007220E+2;-5.613260E+2
5.578358E+4;3.274210E+2;-5.900790E+2
5.162300E+4;3.564360E+2;-6.194650E+2
4.777273E+4;3.878370E+2;-6.491750E+2
4.420963E+4;4.217220E+2;-6.790020E+2
4.091228E+4;4.582220E+2;-7.088790E+2
3.786087E+4;4.974100E+2;-7.385780E+2
3.503704E+4;5.392920E+2;-7.678280E+2
3.242382E+4;5.841670E+2;-7.964240E+2
3.000551E+4;6.315900E+2;-8.240760E+2
2.776757E+4;6.818880E+2;-8.504360E+2
2.569654E+4;7.347350E+2;-8.752010E+2
2.377998E+4;7.901630E+2;-8.981410E+2
2.200637E+4;8.478730E+2;-9.188060E+2
2.036504E+4;9.079610E+2;-9.371950E+2
1.884612E+4;9.697470E+2;-9.529150E+2
1.744050E+4;1.033180E+3;-9.658240E+2
1.613971E+4;1.098080E+3;-9.754610E+2
1.493594E+4;1.163660E+3;-9.817430E+2
1.382195E+4;1.230140E+3;-9.851370E+2
1.279105E+4;1.296650E+3;-9.847530E+2
1.183704E+4;1.362820E+3;-9.812190E+2
1.095418E+4;1.428420E+3;-9.741890E+2
1.013717E+4;1.492910E+3;-9.640400E+2
9.381096E+3;1.556190E+3;-9.507250E+2
8.681413E+3;1.617890E+3;-9.347250E+2
8.033915E+3;1.677550E+3;-9.159970E+2
7.434711E+3;1.734750E+3;-8.950510E+2
6.880198E+3;1.790270E+3;-8.716790E+2
6.367042E+3;1.842460E+3;-8.462160E+2
5.892161E+3;1.892370E+3;-8.199000E+2
5.452698E+3;1.939920E+3;-7.921560E+2
5.046012E+3;1.983500E+3;-7.636760E+2
4.669658E+3;2.025150E+3;-7.340880E+2
4.321375E+3;2.063770E+3;-7.050050E+2
3.999068E+3;2.099730E+3;-6.743510E+2
3.700800E+3;2.133290E+3;-6.445860E+2
3.424778E+3;2.164860E+3;-6.151850E+2
3.169343E+3;2.192750E+3;-5.863290E+2
2.932960E+3;2.219470E+3;-5.570110E+2
2.714207E+3;2.243150E+3;-5.291430E+2
2.511769E+3;2.264820E+3;-5.020300E+2
2.324431E+3;2.285230E+3;-4.755140E+2
2.151064E+3;2.303850E+3;-4.493710E+2
1.990629E+3;2.320560E+3;-4.250530E+2
1.842159E+3;2.335950E+3;-4.009090E+2
1.704763E+3;2.351090E+3;-3.788600E+2
1.577614E+3;2.363550E+3;-3.570830E+2
1.459949E+3;2.374970E+3;-3.357200E+2
1.351059E+3;2.384950E+3;-3.174880E+2
1.250291E+3;2.395360E+3;-2.983790E+2
1.157039E+3;2.403210E+3;-2.806840E+2
1.070742E+3;2.411480E+3;-2.639810E+2
9.908816E+2;2.419680E+3;-2.481320E+2
9.169773E+2;2.426450E+3;-2.337330E+2
8.485852E+2;2.431580E+3;-2.186570E+2
7.852940E+2;2.437300E+3;-2.064380E+2
7.267233E+2;2.442450E+3;-1.941050E+2
6.725211E+2;2.446960E+3;-1.820210E+2
6.223616E+2;2.450490E+3;-1.698280E+2
5.759431E+2;2.454060E+3;-1.598010E+2
5.329868E+2;2.456490E+3;-1.497030E+2
4.932343E+2;2.461420E+3;-1.398020E+2
4.564467E+2;2.463870E+3;-1.299700E+2
4.224029E+2;2.468250E+3;-1.215750E+2
3.908983E+2;2.469090E+3;-1.143790E+2
3.617434E+2;2.473370E+3;-1.079720E+2
3.347630E+2;2.475270E+3;-1.019400E+2
3.097949E+2;2.477660E+3;-9.565010E+1
2.866891E+2;2.479200E+3;-8.807310E+1
2.653065E+2;2.478740E+3;-8.177020E+1
2.455188E+2;2.481850E+3;-7.578380E+1
2.272069E+2;2.483780E+3;-7.194780E+1
2.102609E+2;2.484640E+3;-6.929430E+1
1.945787E+2;2.485870E+3;-6.389210E+1
1.800662E+2;2.486760E+3;-5.889740E+1
1.666360E+2;2.488030E+3;-5.729230E+1
1.542076E+2;2.485670E+3;-5.359120E+1
1.427061E+2;2.489320E+3;-4.879910E+1
1.320625E+2;2.490830E+3;-4.491850E+1
1.222127E+2;2.490730E+3;-4.123140E+1
1.130975E+2;2.489780E+3;-3.861940E+1
1.046622E+2;2.487730E+3;-3.386620E+1
9.685606E+1;2.491790E+3;-3.428620E+1
8.963211E+1;2.486950E+3;-3.469220E+1
8.294696E+1;2.491320E+3;-3.340330E+1
7.676041E+1;2.492500E+3;-2.977920E+1
7.103528E+1;2.495760E+3;-2.594610E+1
6.573716E+1;2.495760E+3;-2.892390E+1
6.083420E+1;2.500060E+3;-1.729320E+1
5.629692E+1;2.490390E+3;-1.646160E+1
5.209805E+1;2.492930E+3;-2.637530E+1
4.821235E+1;2.499470E+3;-2.579820E+1
4.461646E+1;2.506210E+3;-1.454320E+1
4.128877E+1;2.482240E+3;-1.867270E+1
3.820927E+1;2.490960E+3;-1.101810E+1
3.535946E+1;2.504300E+3;-1.324520E+1
3.272220E+1;2.485650E+3;-9.949250E-1
3.028163E+1;2.502790E+3;-1.689750E+1
2.802310E+1;2.503180E+3;-1.801340E+1
2.593301E+1;2.482570E+3;-2.760870E+1
2.399882E+1;2.494760E+3;2.855410E+0
2.220888E+1;2.490470E+3;-1.508380E+1
2.055244E+1;2.505320E+3;-4.512780E+0
1.901955E+1;2.501000E+3;-1.857830E+1
1.760099E+1;2.498680E+3;-3.843250E+1
1.628823E+1;2.494250E+3;-1.458240E-1
1.507339E+1;2.486210E+3;-1.567560E+1
1.394915E+1;2.504210E+3;-8.149230E+0
1.290876E+1;2.454990E+3;-2.151070E+1
1.194597E+1;2.500620E+3;-3.332350E+0
1.105498E+1;2.476910E+3;-2.147200E+1
1.023046E+1;2.488150E+3;-5.428990E+0
9.467424E+0;2.498840E+3;5.024460E+0
8.761302E+0;2.470940E+3;-1.734600E+1
8.107846E+0;2.482430E+3;3.919550E+1
7.503127E+0;2.501130E+3;6.959030E+1
6.943511E+0;2.421110E+3;3.350460E+1
6.425634E+0;2.495920E+3;-2.607580E+1
5.946382E+0;2.473810E+3;1.584200E+1
5.502875E+0;2.526940E+3;5.800550E+1
5.092447E+0;2.576270E+3;5.226410E+1
4.712630E+0;2.563940E+3;6.044950E+1
4.361141E+0;2.476330E+3;9.351050E+1
4.035868E+0;2.450940E+3;-1.599360E+1
3.734856E+0;2.571920E+3;-1.030470E+1
3.456294E+0;2.537200E+3;6.725470E+1
3.198508E+0;2.477720E+3;1.178330E+1
2.959950E+0;2.537440E+3;-2.663020E+1
2.739184E+0;2.458220E+3;1.150080E+1
2.534883E+0;2.520580E+3;1.321370E+1
2.345821E+0;2.469280E+3;4.445810E+0
2.170859E+0;2.501420E+3;2.159170E+1
2.008947E+0;2.482970E+3;-3.344180E+1
1.859111E+0;2.472080E+3;5.110380E+1
1.720450E+0;2.522530E+3;-2.202640E+0
1.592132E+0;2.468090E+3;-3.561540E+1
1.473384E+0;2.457310E+3;2.030540E+1
1.363492E+0;2.503050E+3;1.630050E+1
1.261797E+0;2.486830E+3;4.535170E+0
1.167687E+0;2.480950E+3;-1.578750E+1
1.080595E+0;2.460320E+3;2.426890E+1
1.000000E+0;2.490490E+3;3.651270E+1
Freq /Hz, Zr , Zi ; Name: 50_-4000
5.000000E+6;1.608120E+1;1.698920E+1
4.627078E+6;1.616380E+1;1.363640E+1
4.281971E+6;1.618910E+1;1.021940E+1
3.962602E+6;1.625590E+1;6.896500E+0
3.667054E+6;1.637810E+1;3.657430E+0
3.393549E+6;1.655820E+1;4.569320E-1
3.140444E+6;1.679880E+1;-2.695680E+0
2.906216E+6;1.708650E+1;-5.821970E+0
2.689457E+6;1.742740E+1;-8.969510E+0
2.488866E+6;1.781210E+1;-1.207040E+1
2.303236E+6;1.827070E+1;-1.522580E+1
2.131450E+6;1.876120E+1;-1.841260E+1
1.972477E+6;1.931920E+1;-2.163680E+1
1.825361E+6;1.992980E+1;-2.494270E+1
1.689218E+6;2.060000E+1;-2.831040E+1
1.563229E+6;2.133320E+1;-3.178640E+1
1.446636E+6;2.213760E+1;-3.536610E+1
1.338740E+6;2.298060E+1;-3.906750E+1
1.238891E+6;2.391590E+1;-4.290000E+1
1.146489E+6;2.492580E+1;-4.688770E+1
1.060979E+6;2.598690E+1;-5.105850E+1
9.818463E+5;2.714940E+1;-5.540980E+1
9.086159E+5;2.837970E+1;-5.998180E+1
8.408474E+5;2.970500E+1;-6.477340E+1
7.781333E+5;3.111610E+1;-6.980850E+1
7.200968E+5;3.265020E+1;-7.513170E+1
6.663888E+5;3.429590E+1;-8.074250E+1
6.166866E+5;3.604740E+1;-8.667170E+1
5.706914E+5;3.793370E+1;-9.293920E+1
5.281268E+5;3.995720E+1;-9.960010E+1
4.887368E+5;4.215620E+1;-1.066450E+2
4.522847E+5;4.451230E+1;-1.141180E+2
4.185513E+5;4.706650E+1;-1.220760E+2
3.873339E+5;4.982270E+1;-1.305090E+2
3.584449E+5;5.284670E+1;-1.395680E+2
3.317105E+5;5.610580E+1;-1.490920E+2
3.069701E+5;5.964110E+1;-1.592260E+2
2.840749E+5;6.350650E+1;-1.699880E+2
2.628874E+5;6.770980E+1;-1.814260E+2
2.432801E+5;7.230330E+1;-1.935540E+2
2.251352E+5;7.733190E+1;-2.064350E+2
2.083436E+5;8.283970E+1;-2.201130E+2
1.928044E+5;8.887280E+1;-2.345930E+2
1.784242E+5;9.549430E+1;-2.499400E+2
1.651166E+5;1.027810E+2;-2.661950E+2
1.528015E+5;1.107360E+2;-2.833150E+2
1.414049E+5;1.194960E+2;-3.014500E+2
1.308583E+5;1.291210E+2;-3.205560E+2
1.210983E+5;1.396930E+2;-3.406560E+2
1.120663E+5;1.513100E+2;-3.618100E+2
1.037079E+5;1.640770E+2;-3.840120E+2
9.597288E+4;1.780460E+2;-4.072180E+2
8.881481E+4;1.934050E+2;-4.315070E+2
8.219061E+4;2.101970E+2;-4.568400E+2
7.606048E+4;2.286030E+2;-4.831760E+2
7.038756E+4;2.487310E+2;-5.104580E+2
6.513774E+4;2.707670E+2;-5.387140E+2
6.027949E+4;2.947030E+2;-5.678410E+2
5.578358E+4;3.208330E+2;-5.977130E+2
5.162300E+4;3.492000E+2;-6.283030E+2
4.777273E+4;3.799540E+2;-6.594220E+2
4.420963E+4;4.132590E+2;-6.908780E+2
4.091228E+4;4.491620E+2;-7.226660E+2
3.786087E+4;4.878280E+2;-7.544800E+2
3.503704E+4;5.292670E+2;-7.860290E+2
3.242382E+4;5.736890E+2;-8.172090E+2
3.000551E+4;6.209780E+2;-8.477840E+2
2.776757E+4;6.712460E+2;-8.773700E+2
2.569654E+4;7.244020E+2;-9.056400E+2
2.377998E+4;7.801580E+2;-9.322840E+2
2.200637E+4;8.388240E+2;-9.571620E+2
2.036504E+4;8.999840E+2;-9.798470E+2
1.884612E+4;9.634160E+2;-1.000090E+3
1.744050E+4;1.029090E+3;-1.017610E+3
1.613971E+4;1.096420E+3;-1.032070E+3
1.493594E+4;1.165230E+3;-1.043300E+3
1.382195E+4;1.235170E+3;-1.051370E+3
1.279105E+4;1.305850E+3;-1.055930E+3
1.183704E+4;1.376800E+3;-1.056760E+3
1.095418E+4;1.447610E+3;-1.054220E+3
1.013717E+4;1.518240E+3;-1.048220E+3
9.381096E+3;1.587930E+3;-1.038840E+3
8.681413E+3;1.655630E+3;-1.026030E+3
8.033915E+3;1.722560E+3;-1.010230E+3
7.434711E+3;1.787120E+3;-9.913990E+2
6.880198E+3;1.849870E+3;-9.700710E+2
6.367042E+3;1.909600E+3;-9.461690E+2
5.892161E+3;1.967360E+3;-9.207050E+2
5.452698E+3;2.021480E+3;-8.934780E+2
5.046012E+3;2.073290E+3;-8.642160E+2
4.669658E+3;2.122100E+3;-8.343290E+2
4.321375E+3;2.167910E+3;-8.035810E+2
3.999068E+3;2.211440E+3;-7.716100E+2
3.700800E+3;2.251580E+3;-7.410310E+2
3.424778E+3;2.288610E+3;-7.087860E+2
3.169343E+3;2.323400E+3;-6.768510E+2
2.932960E+3;2.355190E+3;-6.460270E+2
2.714207E+3;2.384790E+3;-6.152270E+2
2.511769E+3;2.412770E+3;-5.853060E+2
2.324431E+3;2.437630E+3;-5.557650E+2
2.151064E+3;2.460160E+3;-5.266530E+2
1.990629E+3;2.481500E+3;-4.986740E+2
1.842159E+3;2.500920E+3;-4.718960E+2
1.704763E+3;2.518480E+3;-4.469310E+2
1.577614E+3;2.534970E+3;-4.218370E+2
1.459949E+3;2.550390E+3;-3.979890E+2
1.351059E+3;2.563270E+3;-3.756710E+2
1.250291E+3;2.576350E+3;-3.544730E+2
1.157039E+3;2.585900E+3;-3.330140E+2
1.070742E+3;2.597430E+3;-3.144110E+2
9.908816E+2;2.607480E+3;-2.959600E+2
9.169773E+2;2.613890E+3;-2.783070E+2
8.485852E+2;2.621920E+3;-2.607210E+2
7.852940E+2;2.629310E+3;-2.442190E+2
7.267233E+2;2.636860E+3;-2.289150E+2
6.725211E+2;2.642100E+3;-2.166580E+2
6.223616E+2;2.648300E+3;-2.036470E+2
5.759431E+2;2.653170E+3;-1.905710E+2
5.329868E+2;2.656510E+3;-1.789940E+2
4.932343E+2;2.661710E+3;-1.675310E+2
4.564467E+2;2.664080E+3;-1.587300E+2
4.224029E+2;2.668690E+3;-1.486640E+2
3.908983E+2;2.673180E+3;-1.382430E+2
3.617434E+2;2.675370E+3;-1.302430E+2
3.347630E+2;2.678850E+3;-1.204870E+2
3.097949E+2;2.679750E+3;-1.133970E+2
2.866891E+2;2.681790E+3;-1.071520E+2
2.653065E+2;2.683170E+3;-1.008230E+2
2.455188E+2;2.685690E+3;-9.636710E+1
2.272069E+2;2.686850E+3;-8.713040E+1
2.102609E+2;2.690050E+3;-8.156140E+1
1.945787E+2;2.690510E+3;-7.918410E+1
1.800662E+2;2.690910E+3;-7.323350E+1
1.666360E+2;2.695600E+3;-6.878450E+1
1.542076E+2;2.696150E+3;-5.967300E+1
1.427061E+2;2.697180E+3;-5.836390E+1
1.320625E+2;2.695470E+3;-5.583220E+1
1.222127E+2;2.698830E+3;-5.437860E+1
1.130975E+2;2.697860E+3;-5.007870E+1
1.046622E+2;2.695440E+3;-4.389940E+1
9.685606E+1;2.702930E+3;-4.034760E+1
8.963211E+1;2.697650E+3;-4.369510E+1
8.294696E+1;2.701780E+3;-3.605110E+1
7.676041E+1;2.698880E+3;-3.658300E+1
7.103528E+1;2.701460E+3;-3.166900E+1
6.573716E+1;2.705480E+3;-3.089800E+1
6.083420E+1;2.698160E+3;-3.557000E+1
5.629692E+1;2.703370E+3;-3.205820E+1
5.209805E+1;2.704830E+3;-2.996020E+1
4.821235E+1;2.709360E+3;-1.779260E+1
4.461646E+1;2.697010E+3;-2.467320E+1
4.128877E+1;2.695870E+3;-1.313450E+1
3.820927E+1;2.705730E+3;-1.312220E+1
3.535946E+1;2.706480E+3;-2.590260E+1
3.272220E+1;2.713300E+3;-7.694140E+0
3.028163E+1;2.700500E+3;-1.942320E+1
2.802310E+1;2.695510E+3;-1.560540E+1
2.593301E+1;2.693820E+3;-1.551620E+0
2.399882E+1;2.708680E+3;-1.986680E+1
2.220888E+1;2.703640E+3;-5.768010E+0
2.055244E+1;2.708890E+3;-2.211810E+1
1.901955E+1;2.698420E+3;-6.063660E+0
1.760099E+1;2.678390E+3;-3.232370E+0
1.628823E+1;2.702510E+3;-1.375460E+1
1.507339E+1;2.703970E+3;-4.230310E+0
1.394915E+1;2.692550E+3;-1.605750E+1
1.290876E+1;2.689500E+3;3.156220E+1
1.194597E+1;2.693040E+3;-2.880320E+0
1.105498E+1;2.714060E+3;-4.136150E+0
1.023046E+1;2.704250E+3;-1.889850E+0
9.467424E+0;2.692340E+3;-6.359220E+0
8.761302E+0;2.723140E+3;-1.816880E+1
8.107846E+0;2.665290E+3;-2.866740E+1
7.503127E+0;2.641770E+3;-3.468960E+1
6.943511E+0;2.694050E+3;-6.060010E+1
6.425634E+0;2.715500E+3;1.889850E+1
5.946382E+0;2.692790E+3;-3.546260E+1
5.502875E+0;2.626940E+3;2.279640E+0
5.092447E+0;2.621890E+3;3.987660E+1
4.712630E+0;2.619870E+3;2.574540E+1
4.361141E+0;2.640140E+3;-5.901520E+1
4.035868E+0;2.730840E+3;-2.345980E+1
3.734856E+0;2.670780E+3;6.633540E+1
3.456294E+0;2.628630E+3;6.977240E+0
3.198508E+0;2.696750E+3;-1.510540E+1
2.959950E+0;2.699860E+3;4.355860E+1
2.739184E+0;2.692520E+3;-2.926740E+1
2.534883E+0;2.714980E+3;1.697800E+1
2.345821E+0;2.684550E+3;-1.128630E+1
2.170859E+0;2.685920E+3;2.887350E+1
2.008947E+0;2.726950E+3;-1.685560E+1
1.859111E+0;2.666410E+3;-1.497700E+1
1.720450E+0;2.679480E+3;2.762450E+1
1.592132E+0;2.739120E+3;-1.662030E+1
1.473384E+0;2.676810E+3;-3.808550E+1
1.363492E+0;2.690940E+3;1.369140E+1
1.261797E+0;2.696770E+3;2.504760E+0
1.167687E+0;2.704210E+3;-1.067200E+1
1.080595E+0;2.704280E+3;-3.769610E+1
1.000000E+0;2.679430E+3;-3.914230E+0
Freq /Hz, Zr , Zi ; Name: 50_-3000
5.000000E+6;1.571290E+1;1.673620E+1
4.627078E+6;1.592790E+1;1.347020E+1
4.281971E+6;1.595600E+1;1.006080E+1
3.962602E+6;1.602560E+1;6.761100E+0
3.667054E+6;1.615230E+1;3.534420E+0
3.393549E+6;1.634230E+1;3.492900E-1
3.140444E+6;1.657780E+1;-2.800180E+0
2.906216E+6;1.686080E+1;-5.923000E+0
2.689457E+6;1.720070E+1;-9.047340E+0
2.488866E+6;1.759720E+1;-1.215630E+1
2.303236E+6;1.803880E+1;-1.529540E+1
2.131450E+6;1.854870E+1;-1.846930E+1
1.972477E+6;1.910230E+1;-2.168810E+1
1.825361E+6;1.971130E+1;-2.498510E+1
1.689218E+6;2.039700E+1;-2.835000E+1
1.563229E+6;2.112410E+1;-3.181380E+1
1.446636E+6;2.190820E+1;-3.539050E+1
1.338740E+6;2.276650E+1;-3.907610E+1
1.238891E+6;2.370450E+1;-4.290820E+1
1.146489E+6;2.469700E+1;-4.689460E+1
1.060979E+6;2.575950E+1;-5.104900E+1
9.818463E+5;2.691100E+1;-5.539590E+1
9.086159E+5;2.813610E+1;-5.995240E+1
8.408474E+5;2.947180E+1;-6.474170E+1
7.781333E+5;3.087650E+1;-6.977180E+1
7.200968E+5;3.239270E+1;-7.508600E+1
6.663888E+5;3.402600E+1;-8.070410E+1
6.166866E+5;3.577460E+1;-8.660970E+1
5.706914E+5;3.764120E+1;-9.288910E+1
5.281268E+5;3.964550E+1;-9.952800E+1
4.887368E+5;4.182070E+1;-1.065770E+2
4.522847E+5;4.415510E+1;-1.140320E+2
4.185513E+5;4.666520E+1;-1.219750E+2
3.873339E+5;4.939420E+1;-1.304160E+2
3.584449E+5;5.237600E+1;-1.394530E+2
3.317105E+5;5.559150E+1;-1.489740E+2
3.069701E+5;5.907350E+1;-1.591010E+2
2.840749E+5;6.287150E+1;-1.698610E+2
2.628874E+5;6.701040E+1;-1.813060E+2
2.432801E+5;7.152220E+1;-1.934430E+2
2.251352E+5;7.645700E+1;-2.063310E+2
2.083436E+5;8.185430E+1;-2.200160E+2
1.928044E+5;8.776320E+1;-2.345260E+2
1.784242E+5;9.425520E+1;-2.499130E+2
1.651166E+5;1.013640E+2;-2.662020E+2
1.528015E+5;1.091520E+2;-2.833870E+2
1.414049E+5;1.176920E+2;-3.015670E+2
1.308583E+5;1.270680E+2;-3.207730E+2
1.210983E+5;1.374030E+2;-3.409990E+2
1.120663E+5;1.487010E+2;-3.622980E+2
1.037079E+5;1.611300E+2;-3.846580E+2
9.597288E+4;1.747260E+2;-4.080740E+2
8.881481E+4;1.896520E+2;-4.326430E+2
8.219061E+4;2.060400E+2;-4.583240E+2
7.606048E+4;2.239610E+2;-4.850420E+2
7.038756E+4;2.435510E+2;-5.128600E+2
6.513774E+4;2.649190E+2;-5.416220E+2
6.027949E+4;2.882420E+2;-5.714260E+2
5.578358E+4;3.136060E+2;-6.020720E+2
5.162300E+4;3.412980E+2;-6.335980E+2
4.777273E+4;3.712410E+2;-6.658650E+2
4.420963E+4;4.037640E+2;-6.986610E+2
4.091228E+4;4.388600E+2;-7.318770E+2
3.786087E+4;4.767060E+2;-7.653870E+2
3.503704E+4;5.174200E+2;-7.989780E+2
3.242382E+4;5.610830E+2;-8.324070E+2
3.000551E+4;6.076400E+2;-8.654470E+2
2.776757E+4;6.572860E+2;-8.977720E+2
2.569654E+4;7.099830E+2;-9.291950E+2
2.377998E+4;7.656960E+2;-9.592890E+2
2.200637E+4;8.243190E+2;-9.879710E+2
2.036504E+4;8.857750E+2;-1.014660E+3
1.884612E+4;9.499460E+2;-1.039360E+3
1.744050E+4;1.016530E+3;-1.061420E+3
1.613971E+4;1.085590E+3;-1.080840E+3
1.493594E+4;1.156450E+3;-1.097150E+3
1.382195E+4;1.228900E+3;-1.110420E+3
1.279105E+4;1.302950E+3;-1.120140E+3
1.183704E+4;1.377420E+3;-1.126170E+3
1.095418E+4;1.452640E+3;-1.128820E+3
1.013717E+4;1.527810E+3;-1.127630E+3
9.381096E+3;1.602830E+3;-1.122910E+3
8.681413E+3;1.676970E+3;-1.114550E+3
8.033915E+3;1.750170E+3;-1.102750E+3
7.434711E+3;1.821830E+3;-1.087300E+3
6.880198E+3;1.891520E+3;-1.069110E+3
6.367042E+3;1.959060E+3;-1.048180E+3
5.892161E+3;2.024440E+3;-1.024920E+3
5.452698E+3;2.086740E+3;-9.990150E+2
5.046012E+3;2.146640E+3;-9.714000E+2
4.669658E+3;2.203270E+3;-9.417940E+2
4.321375E+3;2.257060E+3;-9.106800E+2
3.999068E+3;2.308150E+3;-8.797050E+2
3.700800E+3;2.356020E+3;-8.470520E+2
3.424778E+3;2.400610E+3;-8.133320E+2
3.169343E+3;2.442890E+3;-7.804630E+2
2.932960E+3;2.481430E+3;-7.466730E+2
2.714207E+3;2.517590E+3;-7.137990E+2
2.511769E+3;2.551020E+3;-6.810430E+2
2.324431E+3;2.582520E+3;-6.493040E+2
2.151064E+3;2.611260E+3;-6.172280E+2
1.990629E+3;2.637370E+3;-5.871410E+2
1.842159E+3;2.661470E+3;-5.575760E+2
1.704763E+3;2.684230E+3;-5.281730E+2
1.577614E+3;2.705010E+3;-4.990760E+2
1.459949E+3;2.724120E+3;-4.722910E+2
1.351059E+3;2.741670E+3;-4.468210E+2
1.250291E+3;2.756530E+3;-4.215570E+2
1.157039E+3;2.771930E+3;-3.988690E+2
1.070742E+3;2.783560E+3;-3.761550E+2
9.908816E+2;2.796300E+3;-3.530360E+2
9.169773E+2;2.806300E+3;-3.327860E+2
8.485852E+2;2.818840E+3;-3.140630E+2
7.852940E+2;2.827910E+3;-2.951370E+2
7.267233E+2;2.835150E+3;-2.781040E+2
6.725211E+2;2.842240E+3;-2.621550E+2
6.223616E+2;2.849320E+3;-2.448590E+2
5.759431E+2;2.857570E+3;-2.320520E+2
5.329868E+2;2.860100E+3;-2.167050E+2
4.932343E+2;2.868260E+3;-2.022910E+2
4.564467E+2;2.871130E+3;-1.918680E+2
4.224029E+2;2.876480E+3;-1.793040E+2
3.908983E+2;2.880690E+3;-1.679680E+2
3.617434E+2;2.883280E+3;-1.574740E+2
3.347630E+2;2.886950E+3;-1.477890E+2
3.097949E+2;2.891660E+3;-1.402730E+2
2.866891E+2;2.896000E+3;-1.322420E+2
2.653065E+2;2.897030E+3;-1.218220E+2
2.455188E+2;2.897270E+3;-1.141150E+2
2.272069E+2;2.901890E+3;-1.064050E+2
2.102609E+2;2.905070E+3;-1.028430E+2
1.945787E+2;2.905530E+3;-9.423970E+1
1.800662E+2;2.908470E+3;-8.782970E+1
1.666360E+2;2.909230E+3;-8.391150E+1
1.542076E+2;2.906960E+3;-7.838950E+1
1.427061E+2;2.911670E+3;-7.345520E+1
1.320625E+2;2.911440E+3;-6.980470E+1
1.222127E+2;2.917330E+3;-6.243190E+1
1.130975E+2;2.917660E+3;-5.922610E+1
1.046622E+2;2.916640E+3;-5.807400E+1
9.685606E+1;2.915130E+3;-5.032530E+1
8.963211E+1;2.918660E+3;-4.281340E+1
8.294696E+1;2.916570E+3;-4.526960E+1
7.676041E+1;2.922040E+3;-4.473420E+1
7.103528E+1;2.916930E+3;-3.951910E+1
6.573716E+1;2.918710E+3;-4.132510E+1
6.083420E+1;2.920270E+3;-4.030310E+1
5.629692E+1;2.921340E+3;-3.820810E+1
5.209805E+1;2.926310E+3;-2.685360E+1
4.821235E+1;2.920440E+3;-3.424550E+1
4.461646E+1;2.919470E+3;-1.859490E+1
4.128877E+1;2.927500E+3;-3.302400E+1
3.820927E+1;2.925580E+3;-3.011870E+1
3.535946E+1;2.920040E+3;-2.130010E+1
3.272220E+1;2.921820E+3;-2.857500E+1
3.028163E+1;2.922320E+3;-1.613610E+1
2.802310E+1;2.922340E+3;-1.173500E+1
2.593301E+1;2.940770E+3;-2.063080E+1
2.399882E+1;2.916060E+3;-1.932900E+1
2.220888E+1;2.932970E+3;-1.497970E+1
2.055244E+1;2.913470E+3;-1.378940E+1
1.901955E+1;2.928400E+3;-7.821120E+0
1.760099E+1;2.938560E+3;1.141410E+1
1.628823E+1;2.922580E+3;-1.365010E+1
1.507339E+1;2.932760E+3;-1.079630E+1
1.394915E+1;2.917130E+3;-7.386430E+0
1.290876E+1;2.930660E+3;2.059950E+1
1.194597E+1;2.931880E+3;-8.858520E-1
1.105498E+1;2.914060E+3;-1.180370E+1
1.023046E+1;2.925840E+3;-9.215030E-2
9.467424E+0;2.939490E+3;-4.276060E+0
8.761302E+0;2.908640E+3;4.805750E+0
8.107846E+0;2.953640E+3;2.050520E+1
7.503127E+0;2.964290E+3;1.813570E+1
6.943511E+0;2.909260E+3;4.926730E+1
6.425634E+0;2.925150E+3;-3.061670E+1
5.946382E+0;2.919400E+3;1.609470E+1
5.502875E+0;2.974290E+3;3.243470E+0
5.092447E+0;3.002360E+3;-1.942980E+1
4.712630E+0;2.994290E+3;9.024440E-1
4.361141E+0;2.962960E+3;4.960790E+1
4.035868E+0;2.898620E+3;9.704580E+0
3.734856E+0;2.963100E+3;-5.192460E+1
3.456294E+0;2.982420E+3;8.406400E+0
3.198508E+0;2.912560E+3;1.797580E+1
2.959950E+0;2.928560E+3;-4.780280E+1
2.739184E+0;2.915500E+3;1.451350E+1
2.534883E+0;2.924830E+3;-3.479630E+1
2.345821E+0;2.942580E+3;3.864300E+0
2.170859E+0;2.936040E+3;-8.253410E+0
2.008947E+0;2.895490E+3;-3.860810E+0
1.859111E+0;2.944070E+3;2.174240E+1
1.720450E+0;2.931210E+3;-1.235870E+1
1.592132E+0;2.895530E+3;3.360920E+0
1.473384E+0;2.939420E+3;3.144340E+1
1.363492E+0;2.938430E+3;-7.259820E+0
1.261797E+0;2.909370E+3;-4.181700E+0
1.167687E+0;2.910670E+3;1.283820E+1
1.080595E+0;2.917050E+3;2.331620E+1
1.000000E+0;2.942910E+3;8.501100E+0
Freq /Hz, Zr , Zi ; Name: 50_-2000
5.000000E+6;1.367470E+1;1.162110E+1
4.627078E+6;1.590700E+1;1.334830E+1
4.281971E+6;1.594560E+1;9.998140E+0
3.962602E+6;1.601270E+1;6.698350E+0
3.667054E+6;1.615190E+1;3.469440E+0
3.393549E+6;1.632990E+1;2.859830E-1
3.140444E+6;1.657660E+1;-2.844830E+0
2.906216E+6;1.686610E+1;-5.965310E+0
2.689457E+6;1.719170E+1;-9.089150E+0
2.488866E+6;1.758470E+1;-1.218780E+1
2.303236E+6;1.803870E+1;-1.532360E+1
2.131450E+6;1.854010E+1;-1.849530E+1
1.972477E+6;1.909030E+1;-2.172400E+1
1.825361E+6;1.970270E+1;-2.501110E+1
1.689218E+6;2.037830E+1;-2.837310E+1
1.563229E+6;2.110510E+1;-3.182920E+1
1.446636E+6;2.189400E+1;-3.540790E+1
1.338740E+6;2.274760E+1;-3.908440E+1
1.238891E+6;2.367630E+1;-4.291600E+1
1.146489E+6;2.467580E+1;-4.690410E+1
1.060979E+6;2.573830E+1;-5.106130E+1
9.818463E+5;2.688220E+1;-5.540030E+1
9.086159E+5;2.810970E+1;-5.994690E+1
8.408474E+5;2.942900E+1;-6.474490E+1
7.781333E+5;3.083920E+1;-6.976140E+1
7.200968E+5;3.234450E+1;-7.506210E+1
6.663888E+5;3.396090E+1;-8.066620E+1
6.166866E+5;3.570460E+1;-8.658780E+1
5.706914E+5;3.755890E+1;-9.285880E+1
5.281268E+5;3.956070E+1;-9.949810E+1
4.887368E+5;4.171810E+1;-1.065110E+2
4.522847E+5;4.404440E+1;-1.140010E+2
4.185513E+5;4.654100E+1;-1.219380E+2
3.873339E+5;4.923020E+1;-1.303510E+2
3.584449E+5;5.218840E+1;-1.394020E+2
3.317105E+5;5.537170E+1;-1.489240E+2
3.069701E+5;5.881540E+1;-1.590510E+2
2.840749E+5;6.256420E+1;-1.698070E+2
2.628874E+5;6.664940E+1;-1.812590E+2
2.432801E+5;7.110040E+1;-1.933940E+2
2.251352E+5;7.596840E+1;-2.062940E+2
2.083436E+5;8.128170E+1;-2.199800E+2
1.928044E+5;8.709620E+1;-2.345030E+2
1.784242E+5;9.346240E+1;-2.498940E+2
1.651166E+5;1.004640E+2;-2.662300E+2
1.528015E+5;1.081080E+2;-2.834590E+2
1.414049E+5;1.164940E+2;-3.016970E+2
1.308583E+5;1.257110E+2;-3.209640E+2
1.210983E+5;1.357990E+2;-3.412540E+2
1.120663E+5;1.468660E+2;-3.626400E+2
1.037079E+5;1.590190E+2;-3.851310E+2
9.597288E+4;1.723160E+2;-4.087310E+2
8.881481E+4;1.868980E+2;-4.334580E+2
8.219061E+4;2.028500E+2;-4.593410E+2
7.606048E+4;2.203220E+2;-4.863390E+2
7.038756E+4;2.393930E+2;-5.144670E+2
6.513774E+4;2.602640E+2;-5.436750E+2
6.027949E+4;2.830040E+2;-5.739780E+2
5.578358E+4;3.077350E+2;-6.052820E+2
5.162300E+4;3.346520E+2;-6.375240E+2
4.777273E+4;3.638040E+2;-6.705310E+2
4.420963E+4;3.954100E+2;-7.043000E+2
4.091228E+4;4.296870E+2;-7.387030E+2
3.786087E+4;4.665550E+2;-7.735440E+2
3.503704E+4;5.062580E+2;-8.087460E+2
3.242382E+4;5.489460E+2;-8.439670E+2
3.000551E+4;5.945240E+2;-8.791340E+2
2.776757E+4;6.433310E+2;-9.139550E+2
2.569654E+4;6.952960E+2;-9.482220E+2
2.377998E+4;7.502500E+2;-9.815500E+2
2.200637E+4;8.084270E+2;-1.013700E+3
2.036504E+4;8.695930E+2;-1.044380E+3
1.884612E+4;9.337740E+2;-1.073170E+3
1.744050E+4;1.000670E+3;-1.099750E+3
1.613971E+4;1.070300E+3;-1.124240E+3
1.493594E+4;1.142270E+3;-1.145880E+3
1.382195E+4;1.216520E+3;-1.164700E+3
1.279105E+4;1.292380E+3;-1.179990E+3
1.183704E+4;1.370090E+3;-1.192290E+3
1.095418E+4;1.448680E+3;-1.200780E+3
1.013717E+4;1.527720E+3;-1.205990E+3
9.381096E+3;1.607640E+3;-1.207420E+3
8.681413E+3;1.687070E+3;-1.204350E+3
8.033915E+3;1.766190E+3;-1.198600E+3
7.434711E+3;1.844650E+3;-1.188470E+3
6.880198E+3;1.921320E+3;-1.175340E+3
6.367042E+3;1.996710E+3;-1.158610E+3
5.892161E+3;2.069410E+3;-1.139230E+3
5.452698E+3;2.140140E+3;-1.117050E+3
5.046012E+3;2.208500E+3;-1.091620E+3
4.669658E+3;2.274590E+3;-1.064390E+3
4.321375E+3;2.337170E+3;-1.035180E+3
3.999068E+3;2.397150E+3;-1.004330E+3
3.700800E+3;2.453710E+3;-9.716030E+2
3.424778E+3;2.507540E+3;-9.389110E+2
3.169343E+3;2.558260E+3;-9.044820E+2
2.932960E+3;2.605380E+3;-8.699870E+2
2.714207E+3;2.649940E+3;-8.357500E+2
2.511769E+3;2.691860E+3;-8.002280E+2
2.324431E+3;2.730280E+3;-7.664380E+2
2.151064E+3;2.766520E+3;-7.322230E+2
1.990629E+3;2.799200E+3;-6.988380E+2
1.842159E+3;2.831040E+3;-6.654840E+2
1.704763E+3;2.858960E+3;-6.323520E+2
1.577614E+3;2.886480E+3;-6.019620E+2
1.459949E+3;2.910310E+3;-5.706780E+2
1.351059E+3;2.932940E+3;-5.418790E+2
1.250291E+3;2.953770E+3;-5.129510E+2
1.157039E+3;2.972330E+3;-4.860430E+2
1.070742E+3;2.990110E+3;-4.595470E+2
9.908816E+2;3.005260E+3;-4.349680E+2
9.169773E+2;3.021620E+3;-4.089820E+2
8.485852E+2;3.035350E+3;-3.879730E+2
7.852940E+2;3.047780E+3;-3.642980E+2
7.267233E+2;3.058910E+3;-3.433380E+2
6.725211E+2;3.068620E+3;-3.237990E+2
6.223616E+2;3.079250E+3;-3.045450E+2
5.759431E+2;3.087780E+3;-2.884850E+2
5.329868E+2;3.094500E+3;-2.707470E+2
4.932343E+2;3.102430E+3;-2.535030E+2
4.564467E+2;3.108930E+3;-2.386190E+2
4.224029E+2;3.117270E+3;-2.235160E+2
3.908983E+2;3.121320E+3;-2.107970E+2
3.617434E+2;3.127110E+3;-1.994990E+2
3.347630E+2;3.131000E+3;-1.858580E+2
3.097949E+2;3.134820E+3;-1.740170E+2
2.866891E+2;3.139550E+3;-1.639760E+2
2.653065E+2;3.143900E+3;-1.523360E+2
2.455188E+2;3.147640E+3;-1.461620E+2
2.272069E+2;3.148800E+3;-1.371730E+2
2.102609E+2;3.152890E+3;-1.273850E+2
1.945787E+2;3.156070E+3;-1.181100E+2
1.800662E+2;3.156050E+3;-1.127320E+2
1.666360E+2;3.158500E+3;-1.045150E+2
1.542076E+2;3.160220E+3;-1.002280E+2
1.427061E+2;3.164090E+3;-9.149970E+1
1.320625E+2;3.165560E+3;-8.597790E+1
1.222127E+2;3.167540E+3;-8.257380E+1
1.130975E+2;3.168170E+3;-7.531060E+1
1.046622E+2;3.166700E+3;-7.487550E+1
9.685606E+1;3.176060E+3;-6.599740E+1
8.963211E+1;3.172240E+3;-6.667910E+1
8.294696E+1;3.171900E+3;-5.865980E+1
7.676041E+1;3.174380E+3;-5.620120E+1
7.103528E+1;3.174680E+3;-5.243450E+1
6.573716E+1;3.177460E+3;-5.011790E+1
6.083420E+1;3.179010E+3;-4.260600E+1
5.629692E+1;3.176160E+3;-4.001110E+1
5.209805E+1;3.174170E+3;-4.153360E+1
4.821235E+1;3.180340E+3;-4.108590E+1
4.461646E+1;3.179360E+3;-3.610500E+1
4.128877E+1;3.183950E+3;-2.547480E+1
3.820927E+1;3.187410E+3;-2.794490E+1
3.535946E+1;3.177390E+3;-3.335480E+1
3.272220E+1;3.191090E+3;-2.906200E+1
3.028163E+1;3.183730E+3;-2.698830E+1
2.802310E+1;3.187980E+3;-2.955650E+1
2.593301E+1;3.174420E+3;-1.752170E+1
2.399882E+1;3.188830E+3;-1.702050E+1
2.220888E+1;3.180330E+3;-1.694550E+1
2.055244E+1;3.187390E+3;-2.296410E+1
1.901955E+1;3.180310E+3;-1.743750E+1
1.760099E+1;3.166360E+3;-2.289630E+1
1.628823E+1;3.186940E+3;-1.043670E+1
1.507339E+1;3.181660E+3;-1.371810E+1
1.394915E+1;3.187190E+3;-1.990570E+1
1.290876E+1;3.162060E+3;1.026860E+0
1.194597E+1;3.189180E+3;-6.763140E+0
1.105498E+1;3.188290E+3;-1.576920E+1
1.023046E+1;3.184930E+3;-2.342470E+1
9.467424E+0;3.181860E+3;-5.703080E+0
8.761302E+0;3.188360E+3;-2.874310E+1
8.107846E+0;3.165930E+3;-1.288620E+1
7.503127E+0;3.151060E+3;-1.692640E+1
6.943511E+0;3.173290E+3;-5.017280E+1
6.425634E+0;3.206140E+3;-5.602480E-1
5.946382E+0;3.187490E+3;-1.821170E+1
5.502875E+0;3.156770E+3;2.608350E+1
5.092447E+0;3.150250E+3;3.263530E+1
4.712630E+0;3.163080E+3;3.378680E+1
4.361141E+0;3.133040E+3;-1.165450E+1
4.035868E+0;3.199280E+3;-2.793980E+1
3.734856E+0;3.180280E+3;4.075660E+1
3.456294E+0;3.157180E+3;1.257660E+1
3.198508E+0;3.182350E+3;-1.666770E+1
2.959950E+0;3.201130E+3;2.039840E+1
2.739184E+0;3.188180E+3;-2.511000E+1
2.534883E+0;3.183890E+3;1.708460E+1
2.345821E+0;3.179260E+3;-1.769350E+1
2.170859E+0;3.173350E+3;-5.501920E+0
2.008947E+0;3.198190E+3;-1.874760E+1
1.859111E+0;3.155380E+3;-2.171750E+1
1.720450E+0;3.182830E+3;9.145260E+0
1.592132E+0;3.206740E+3;-1.252510E+1
1.473384E+0;3.176150E+3;-1.514930E+1
1.363492E+0;3.194170E+3;6.268600E+0
1.261797E+0;3.185680E+3;2.093940E+0
1.167687E+0;3.200610E+3;-6.970940E+0
1.080595E+0;3.172710E+3;-2.099360E+1
1.000000E+0;3.173410E+3;-3.688680E+0
Freq /Hz, Zr , Zi ; Name: 50_-1000
5.000000E+6;1.373370E+1;1.161380E+1
4.627078E+6;1.413730E+1;8.330250E+0
4.281971E+6;1.446290E+1;5.264830E+0
3.962602E+6;1.480620E+1;2.299590E+0
3.667054E+6;1.516910E+1;-6.246770E-1
3.393549E+6;1.556090E+1;-3.520850E+0
3.140444E+6;1.596300E+1;-6.394100E+0
2.906216E+6;1.640590E+1;-9.252790E+0
2.689457E+6;1.687920E+1;-1.214910E+1
2.488866E+6;1.737700E+1;-1.503960E+1
2.303236E+6;1.793540E+1;-1.797980E+1
2.131450E+6;1.850970E+1;-2.096670E+1
1.972477E+6;1.915010E+1;-2.401760E+1
1.825361E+6;1.981530E+1;-2.714460E+1
1.689218E+6;2.054480E+1;-3.036120E+1
1.563229E+6;2.131550E+1;-3.369010E+1
1.446636E+6;2.215120E+1;-3.713190E+1
1.338740E+6;2.304930E+1;-4.069660E+1
1.238891E+6;2.400750E+1;-4.440700E+1
1.146489E+6;2.502530E+1;-4.829400E+1
1.060979E+6;2.610130E+1;-5.235160E+1
9.818463E+5;2.728280E+1;-5.660570E+1
9.086159E+5;2.852370E+1;-6.108080E+1
8.408474E+5;2.984970E+1;-6.579240E+1
7.781333E+5;3.127580E+1;-7.074260E+1
7.200968E+5;3.279420E+1;-7.598550E+1
6.663888E+5;3.441550E+1;-8.153420E+1
6.166866E+5;3.616290E+1;-8.738810E+1
5.706914E+5;3.801360E+1;-9.360230E+1
5.281268E+5;4.002030E+1;-1.001970E+2
4.887368E+5;4.217320E+1;-1.071920E+2
4.522847E+5;4.448820E+1;-1.146230E+2
4.185513E+5;4.697460E+1;-1.225320E+2
3.873339E+5;4.967150E+1;-1.309180E+2
3.584449E+5;5.259650E+1;-1.399230E+2
3.317105E+5;5.575910E+1;-1.494200E+2
3.069701E+5;5.918440E+1;-1.595250E+2
2.840749E+5;6.290580E+1;-1.702620E+2
2.628874E+5;6.694970E+1;-1.816780E+2
2.432801E+5;7.136870E+1;-1.938210E+2
2.251352E+5;7.618020E+1;-2.067140E+2
2.083436E+5;8.143440E+1;-2.203960E+2
1.928044E+5;8.718150E+1;-2.349090E+2
1.784242E+5;9.346800E+1;-2.503030E+2
1.651166E+5;1.003480E+2;-2.666120E+2
1.528015E+5;1.078910E+2;-2.838960E+2
1.414049E+5;1.161330E+2;-3.021430E+2
1.308583E+5;1.251950E+2;-3.214560E+2
1.210983E+5;1.350960E+2;-3.417820E+2
1.120663E+5;1.459670E+2;-3.632310E+2
1.037079E+5;1.578610E+2;-3.857980E+2
9.597288E+4;1.708940E+2;-4.095120E+2
8.881481E+4;1.851510E+2;-4.343760E+2
8.219061E+4;2.007420E+2;-4.604000E+2
7.606048E+4;2.177920E+2;-4.876120E+2
7.038756E+4;2.364020E+2;-5.159930E+2
6.513774E+4;2.566870E+2;-5.455120E+2
6.027949E+4;2.788120E+2;-5.761640E+2
5.578358E+4;3.028890E+2;-6.079150E+2
5.162300E+4;3.290230E+2;-6.406680E+2
4.777273E+4;3.573800E+2;-6.743750E+2
4.420963E+4;3.880950E+2;-7.090000E+2
4.091228E+4;4.212920E+2;-7.443770E+2
3.786087E+4;4.571260E+2;-7.804060E+2
3.503704E+4;4.957150E+2;-8.169830E+2
3.242382E+4;5.371210E+2;-8.538590E+2
3.000551E+4;5.814850E+2;-8.909790E+2
2.776757E+4;6.289090E+2;-9.279660E+2
2.569654E+4;6.794490E+2;-9.647220E+2
2.377998E+4;7.330860E+2;-1.000980E+3
2.200637E+4;7.899390E+2;-1.036450E+3
2.036504E+4;8.500030E+2;-1.070860E+3
1.884612E+4;9.131500E+2;-1.103930E+3
1.744050E+4;9.793850E+2;-1.135520E+3
1.613971E+4;1.048430E+3;-1.165190E+3
1.493594E+4;1.120330E+3;-1.192560E+3
1.382195E+4;1.194780E+3;-1.217650E+3
1.279105E+4;1.271740E+3;-1.239910E+3
1.183704E+4;1.350670E+3;-1.259090E+3
1.095418E+4;1.431370E+3;-1.275250E+3
1.013717E+4;1.513500E+3;-1.288040E+3
9.381096E+3;1.596810E+3;-1.297310E+3
8.681413E+3;1.680780E+3;-1.303140E+3
8.033915E+3;1.765140E+3;-1.305230E+3
7.434711E+3;1.849500E+3;-1.303540E+3
6.880198E+3;1.933530E+3;-1.298530E+3
6.367042E+3;2.016780E+3;-1.289790E+3
5.892161E+3;2.098680E+3;-1.277680E+3
5.452698E+3;2.179010E+3;-1.262010E+3
5.046012E+3;2.257850E+3;-1.243760E+3
4.669658E+3;2.334550E+3;-1.222180E+3
4.321375E+3;2.409300E+3;-1.198280E+3
3.999068E+3;2.480950E+3;-1.171880E+3
3.700800E+3;2.550010E+3;-1.143620E+3
3.424778E+3;2.616460E+3;-1.113620E+3
3.169343E+3;2.679700E+3;-1.081220E+3
2.932960E+3;2.740070E+3;-1.048550E+3
2.714207E+3;2.797620E+3;-1.014210E+3
2.511769E+3;2.851970E+3;-9.798180E+2
2.324431E+3;2.903600E+3;-9.442520E+2
2.151064E+3;2.951880E+3;-9.087930E+2
1.990629E+3;2.997270E+3;-8.727690E+2
1.842159E+3;3.040000E+3;-8.372200E+2
1.704763E+3;3.079880E+3;-8.018510E+2
1.577614E+3;3.117520E+3;-7.669960E+2
1.459949E+3;3.152440E+3;-7.324970E+2
1.351059E+3;3.184750E+3;-6.990290E+2
1.250291E+3;3.214630E+3;-6.660470E+2
1.157039E+3;3.243140E+3;-6.339920E+2
1.070742E+3;3.268610E+3;-6.029920E+2
9.908816E+2;3.292460E+3;-5.731280E+2
9.169773E+2;3.314610E+3;-5.434960E+2
8.485852E+2;3.334510E+3;-5.155380E+2
7.852940E+2;3.354530E+3;-4.883410E+2
7.267233E+2;3.371840E+3;-4.624050E+2
6.725211E+2;3.388710E+3;-4.374150E+2
6.223616E+2;3.403460E+3;-4.135900E+2
5.759431E+2;3.416770E+3;-3.913750E+2
5.329868E+2;3.429400E+3;-3.696880E+2
4.932343E+2;3.441230E+3;-3.491190E+2
4.564467E+2;3.452040E+3;-3.283300E+2
4.224029E+2;3.461560E+3;-3.101870E+2
3.908983E+2;3.471090E+3;-2.927280E+2
3.617434E+2;3.479970E+3;-2.758850E+2
3.347630E+2;3.486830E+3;-2.599050E+2
3.097949E+2;3.493600E+3;-2.440570E+2
2.866891E+2;3.500430E+3;-2.302280E+2
2.653065E+2;3.506410E+3;-2.158800E+2
2.455188E+2;3.511930E+3;-2.033020E+2
2.272069E+2;3.516730E+3;-1.908370E+2
2.102609E+2;3.521890E+3;-1.802580E+2
1.945787E+2;3.526130E+3;-1.690000E+2
1.800662E+2;3.529750E+3;-1.594210E+2
1.666360E+2;3.533330E+3;-1.486540E+2
1.542076E+2;3.537430E+3;-1.400430E+2
1.427061E+2;3.539820E+3;-1.310620E+2
1.320625E+2;3.542590E+3;-1.240150E+2
1.222127E+2;3.545660E+3;-1.157940E+2
1.130975E+2;3.547770E+3;-1.093260E+2
1.046622E+2;3.549190E+3;-1.017600E+2
9.685606E+1;3.553370E+3;-9.598640E+1
8.963211E+1;3.555870E+3;-8.965500E+1
8.294696E+1;3.555030E+3;-8.591110E+1
7.676041E+1;3.557480E+3;-7.876180E+1
7.103528E+1;3.558570E+3;-7.501490E+1
6.573716E+1;3.558910E+3;-7.048320E+1
6.083420E+1;3.560320E+3;-6.981100E+1
5.629692E+1;3.561950E+3;-6.408990E+1
5.209805E+1;3.563020E+3;-5.503590E+1
4.821235E+1;3.564290E+3;-5.576490E+1
4.461646E+1;3.566290E+3;-4.847990E+1
4.128877E+1;3.567090E+3;-5.155460E+1
3.820927E+1;3.567980E+3;-4.678390E+1
3.535946E+1;3.567900E+3;-4.043980E+1
3.272220E+1;3.566000E+3;-4.189010E+1
3.028163E+1;3.569430E+3;-3.371560E+1
2.802310E+1;3.571840E+3;-3.176200E+1
2.593301E+1;3.576670E+3;-3.211880E+1
2.399882E+1;3.568700E+3;-3.286780E+1
2.220888E+1;3.573640E+3;-3.049350E+1
2.055244E+1;3.568840E+3;-2.593570E+1
1.901955E+1;3.577010E+3;-2.416440E+1
1.760099E+1;3.584570E+3;-2.010270E+1
1.628823E+1;3.574000E+3;-2.203140E+1
1.507339E+1;3.577430E+3;-2.338130E+1
1.394915E+1;3.573230E+3;-1.668730E+1
1.290876E+1;3.588810E+3;-2.384320E+1
1.194597E+1;3.577020E+3;-1.993860E+1
1.105498E+1;3.572770E+3;-1.221710E+1
1.023046E+1;3.574280E+3;-1.182460E+1
9.467424E+0;3.569620E+3;-1.225440E+1
8.761302E+0;3.580050E+3;-5.779680E+0
8.107846E+0;3.583780E+3;-2.304730E+1
7.503127E+0;3.582630E+3;-3.271760E+1
6.943511E+0;3.598570E+3;-9.704530E+0
6.425634E+0;3.568930E+3;-8.745560E+0
5.946382E+0;3.585420E+3;-1.404800E+1
5.502875E+0;3.570330E+3;-3.682610E+1
5.092447E+0;3.560120E+3;-3.528030E+1
4.712630E+0;3.560460E+3;-3.472570E+1
4.361141E+0;3.586820E+3;-3.433900E+1
4.035868E+0;3.577240E+3;3.419150E+0
3.734856E+0;3.546990E+3;-2.070220E+1
3.456294E+0;3.569580E+3;-3.220350E+1
3.198508E+0;3.582500E+3;-2.650380E+0
2.959950E+0;3.555010E+3;-2.420670E+0
2.739184E+0;3.581040E+3;-3.430730E+0
2.534883E+0;3.561840E+3;-1.559130E+0
2.345821E+0;3.585170E+3;-2.994620E+0
2.170859E+0;3.566270E+3;-6.463250E+0
2.008947E+0;3.582820E+3;3.900940E+0
1.859111E+0;3.582490E+3;-1.679100E+1
1.720450E+0;3.571390E+3;-1.096560E+1
1.592132E+0;3.579880E+3;1.023310E+1
1.473384E+0;3.587360E+3;-8.476850E+0
1.363492E+0;3.568270E+3;-4.961050E+0
1.261797E+0;3.574950E+3;3.675570E+0
1.167687E+0;3.581190E+3;-1.833990E+0
1.080595E+0;3.586290E+3;-1.857620E+0
1.000000E+0;3.584280E+3;-1.012300E+1
Freq /Hz, Zr , Zi ; Name: 50_-100
5.000000E+6;6.905720E+0;-2.075020E+1
4.627078E+6;7.557860E+0;-2.153580E+1
4.281971E+6;8.162380E+0;-2.245000E+1
3.962602E+6;8.766020E+0;-2.344910E+1
3.667054E+6;9.356550E+0;-2.455580E+1
3.393549E+6;9.949650E+0;-2.577010E+1
3.140444E+6;1.054780E+1;-2.707960E+1
2.906216E+6;1.116880E+1;-2.850840E+1
2.689457E+6;1.179630E+1;-3.007970E+1
2.488866E+6;1.244570E+1;-3.173800E+1
2.303236E+6;1.313940E+1;-3.353860E+1
2.131450E+6;1.385310E+1;-3.547570E+1
1.972477E+6;1.460700E+1;-3.755360E+1
1.825361E+6;1.540060E+1;-3.978000E+1
1.689218E+6;1.623220E+1;-4.216240E+1
1.563229E+6;1.711530E+1;-4.470530E+1
1.446636E+6;1.804600E+1;-4.742970E+1
1.338740E+6;1.903740E+1;-5.033730E+1
1.238891E+6;2.007740E+1;-5.343760E+1
1.146489E+6;2.118990E+1;-5.674650E+1
1.060979E+6;2.236080E+1;-6.028060E+1
9.818463E+5;2.360620E+1;-6.405420E+1
9.086159E+5;2.493050E+1;-6.806440E+1
8.408474E+5;2.632680E+1;-7.235230E+1
7.781333E+5;2.781730E+1;-7.692860E+1
7.200968E+5;2.940270E+1;-8.180390E+1
6.663888E+5;3.109550E+1;-8.702000E+1
6.166866E+5;3.289710E+1;-9.257650E+1
5.706914E+5;3.481760E+1;-9.850200E+1
5.281268E+5;3.687580E+1;-1.048340E+2
4.887368E+5;3.908380E+1;-1.115890E+2
4.522847E+5;4.144130E+1;-1.188020E+2
4.185513E+5;4.399530E+1;-1.265080E+2
3.873339E+5;4.673980E+1;-1.347150E+2
3.584449E+5;4.972080E+1;-1.435510E+2
3.317105E+5;5.292660E+1;-1.528990E+2
3.069701E+5;5.638940E+1;-1.628570E+2
2.840749E+5;6.014960E+1;-1.734740E+2
2.628874E+5;6.423640E+1;-1.847750E+2
2.432801E+5;6.867660E+1;-1.968050E+2
2.251352E+5;7.352010E+1;-2.096080E+2
2.083436E+5;7.880220E+1;-2.232100E+2
1.928044E+5;8.457070E+1;-2.376610E+2
1.784242E+5;9.087520E+1;-2.530040E+2
1.651166E+5;9.776680E+1;-2.692690E+2
1.528015E+5;1.053060E+2;-2.865010E+2
1.414049E+5;1.135540E+2;-3.047250E+2
1.308583E+5;1.225770E+2;-3.240100E+2
1.210983E+5;1.324480E+2;-3.443440E+2
1.120663E+5;1.432640E+2;-3.657920E+2
1.037079E+5;1.550880E+2;-3.883620E+2
9.597288E+4;1.680110E+2;-4.120850E+2
8.881481E+4;1.821440E+2;-4.369990E+2
8.219061E+4;1.975760E+2;-4.630670E+2
7.606048E+4;2.144140E+2;-4.903470E+2
7.038756E+4;2.327890E+2;-5.188350E+2
6.513774E+4;2.527720E+2;-5.484670E+2
6.027949E+4;2.745270E+2;-5.793000E+2
5.578358E+4;2.981400E+2;-6.112210E+2
5.162300E+4;3.237630E+2;-6.442110E+2
4.777273E+4;3.515400E+2;-6.782910E+2
4.420963E+4;3.815320E+2;-7.132770E+2
4.091228E+4;4.139180E+2;-7.491780E+2
3.786087E+4;4.488270E+2;-7.858550E+2
3.503704E+4;4.863610E+2;-8.232150E+2
3.242382E+4;5.265850E+2;-8.610520E+2
3.000551E+4;5.696560E+2;-8.992640E+2
2.776757E+4;6.156220E+2;-9.376730E+2
2.569654E+4;6.646150E+2;-9.761790E+2
2.377998E+4;7.166200E+2;-1.014480E+3
2.200637E+4;7.716480E+2;-1.052350E+3
2.036504E+4;8.298190E+2;-1.089600E+3
1.884612E+4;8.910300E+2;-1.126040E+3
1.744050E+4;9.552960E+2;-1.161380E+3
1.613971E+4;1.022540E+3;-1.195430E+3
1.493594E+4;1.092630E+3;-1.227920E+3
1.382195E+4;1.165540E+3;-1.258550E+3
1.279105E+4;1.241080E+3;-1.287230E+3
1.183704E+4;1.319070E+3;-1.313760E+3
1.095418E+4;1.399390E+3;-1.338070E+3
1.013717E+4;1.481610E+3;-1.359390E+3
9.381096E+3;1.565570E+3;-1.377920E+3
8.681413E+3;1.651000E+3;-1.393490E+3
8.033915E+3;1.737580E+3;-1.406080E+3
7.434711E+3;1.825080E+3;-1.415510E+3
6.880198E+3;1.913280E+3;-1.421870E+3
6.367042E+3;2.001620E+3;-1.424890E+3
5.892161E+3;2.090000E+3;-1.424760E+3
5.452698E+3;2.178220E+3;-1.421600E+3
5.046012E+3;2.265730E+3;-1.415290E+3
4.669658E+3;2.352370E+3;-1.405920E+3
4.321375E+3;2.437950E+3;-1.393780E+3
3.999068E+3;2.522140E+3;-1.378820E+3
3.700800E+3;2.604690E+3;-1.361240E+3
3.424778E+3;2.685550E+3;-1.341280E+3
3.169343E+3;2.764340E+3;-1.319040E+3
2.932960E+3;2.841040E+3;-1.294690E+3
2.714207E+3;2.915450E+3;-1.268520E+3
2.511769E+3;2.987440E+3;-1.240570E+3
2.324431E+3;3.057060E+3;-1.211230E+3
2.151064E+3;3.124170E+3;-1.180550E+3
1.990629E+3;3.188560E+3;-1.148770E+3
1.842159E+3;3.250410E+3;-1.116090E+3
1.704763E+3;3.309640E+3;-1.082590E+3
1.577614E+3;3.366180E+3;-1.048680E+3
1.459949E+3;3.419910E+3;-1.014220E+3
1.351059E+3;3.471330E+3;-9.796570E+2
1.250291E+3;3.519890E+3;-9.448970E+2
1.157039E+3;3.566160E+3;-9.101460E+2
1.070742E+3;3.610000E+3;-8.756670E+2
9.908816E+2;3.651360E+3;-8.414390E+2
9.169773E+2;3.690380E+3;-8.075810E+2
8.485852E+2;3.727090E+3;-7.742060E+2
7.852940E+2;3.761640E+3;-7.414650E+2
7.267233E+2;3.794260E+3;-7.092400E+2
6.725211E+2;3.824510E+3;-6.777120E+2
6.223616E+2;3.852980E+3;-6.470030E+2
5.759431E+2;3.879810E+3;-6.172420E+2
5.329868E+2;3.904630E+3;-5.881440E+2
4.932343E+2;3.928160E+3;-5.599520E+2
4.564467E+2;3.949830E+3;-5.327060E+2
4.224029E+2;3.970210E+3;-5.064120E+2
3.908983E+2;3.989200E+3;-4.809510E+2
3.617434E+2;4.006830E+3;-4.566360E+2
3.347630E+2;4.023210E+3;-4.330730E+2
3.097949E+2;4.038390E+3;-4.106040E+2
2.866891E+2;4.052410E+3;-3.888320E+2
2.653065E+2;4.065410E+3;-3.680940E+2
2.455188E+2;4.077570E+3;-3.484010E+2
2.272069E+2;4.088830E+3;-3.294170E+2
2.102609E+2;4.099160E+3;-3.114580E+2
1.945787E+2;4.109260E+3;-2.942220E+2
1.800662E+2;4.118280E+3;-2.778620E+2
1.666360E+2;4.126540E+3;-2.623150E+2
1.542076E+2;4.134140E+3;-2.476640E+2
1.427061E+2;4.141690E+3;-2.335170E+2
1.320625E+2;4.148360E+3;-2.201460E+2
1.222127E+2;4.154660E+3;-2.074560E+2
1.130975E+2;4.160170E+3;-1.955140E+2
1.046622E+2;4.165210E+3;-1.841370E+2
9.685606E+1;4.170000E+3;-1.734180E+2
8.963211E+1;4.174570E+3;-1.634410E+2
8.294696E+1;4.178330E+3;-1.537450E+2
7.676041E+1;4.182100E+3;-1.444460E+2
7.103528E+1;4.185510E+3;-1.361070E+2
6.573716E+1;4.188670E+3;-1.277430E+2
6.083420E+1;4.191770E+3;-1.205090E+2
5.629692E+1;4.194130E+3;-1.130500E+2
5.209805E+1;4.196600E+3;-1.065250E+2
4.821235E+1;4.199100E+3;-9.985870E+1
4.461646E+1;4.201880E+3;-9.430760E+1
4.128877E+1;4.204190E+3;-8.790180E+1
3.820927E+1;4.206560E+3;-8.268860E+1
3.535946E+1;4.208490E+3;-7.822820E+1
3.272220E+1;4.210730E+3;-7.282830E+1
3.028163E+1;4.211580E+3;-6.908760E+1
2.802310E+1;4.212440E+3;-6.479070E+1
2.593301E+1;4.212600E+3;-6.037360E+1
2.399882E+1;4.214440E+3;-5.686720E+1
2.220888E+1;4.214550E+3;-5.342480E+1
2.055244E+1;4.216120E+3;-5.066420E+1
1.901955E+1;4.216160E+3;-4.736180E+1
1.760099E+1;4.215450E+3;-4.436990E+1
1.628823E+1;4.216920E+3;-4.156950E+1
1.507339E+1;4.216260E+3;-3.880920E+1
1.394915E+1;4.217390E+3;-3.707900E+1
1.290876E+1;4.217940E+3;-3.343060E+1
1.194597E+1;4.219920E+3;-3.213980E+1
1.105498E+1;4.220820E+3;-3.118280E+1
1.023046E+1;4.221690E+3;-2.850140E+1
9.467424E+0;4.222710E+3;-2.610840E+1
8.761302E+0;4.223180E+3;-2.610410E+1
8.107846E+0;4.221980E+3;-2.273990E+1
7.503127E+0;4.222400E+3;-1.990110E+1
6.943511E+0;4.221950E+3;-2.279190E+1
6.425634E+0;4.225810E+3;-2.021360E+1
5.946382E+0;4.224450E+3;-1.847290E+1
5.502875E+0;4.224870E+3;-1.414260E+1
5.092447E+0;4.226820E+3;-1.228980E+1
4.712630E+0;4.226360E+3;-1.164230E+1
4.361141E+0;4.224880E+3;-1.304160E+1
4.035868E+0;4.228150E+3;-1.527650E+1
3.734856E+0;4.231000E+3;-1.005900E+1
3.456294E+0;4.227430E+3;-8.874270E+0
3.198508E+0;4.228600E+3;-1.139400E+1
2.959950E+0;4.231350E+3;-9.465210E+0
2.739184E+0;4.228600E+3;-1.012800E+1
2.534883E+0;4.229580E+3;-7.811960E+0
2.345821E+0;4.229210E+3;-9.328700E+0
2.170859E+0;4.228910E+3;-7.523230E+0
2.008947E+0;4.230870E+3;-7.125790E+0
1.859111E+0;4.227260E+3;-8.807600E+0
1.720450E+0;4.227670E+3;-6.378330E+0
1.592132E+0;4.229810E+3;-6.355130E+0
1.473384E+0;4.227160E+3;-7.695930E+0
1.363492E+0;4.226530E+3;-5.463010E+0
1.261797E+0;4.227110E+3;-5.420180E+0
1.167687E+0;4.227250E+3;-5.881190E+0
1.080595E+0;4.224800E+3;-6.173820E+0
1.000000E+0;4.225280E+3;-4.853070E+0
Freq /Hz, Zr , Zi ; Name: 50_-200
5.000000E+6;6.900510E+0;-2.074110E+1
4.627078E+6;7.541820E+0;-2.151700E+1
4.281971E+6;8.139050E+0;-2.243030E+1
3.962602E+6;8.740260E+0;-2.342940E+1
3.667054E+6;9.333610E+0;-2.454220E+1
3.393549E+6;9.926580E+0;-2.575000E+1
3.140444E+6;1.052760E+1;-2.706530E+1
2.906216E+6;1.114690E+1;-2.849640E+1
2.689457E+6;1.177430E+1;-3.006980E+1
2.488866E+6;1.242760E+1;-3.172090E+1
2.303236E+6;1.311630E+1;-3.352360E+1
2.131450E+6;1.383010E+1;-3.546170E+1
1.972477E+6;1.458030E+1;-3.753310E+1
1.825361E+6;1.537020E+1;-3.975650E+1
1.689218E+6;1.620490E+1;-4.215020E+1
1.563229E+6;1.709060E+1;-4.469240E+1
1.446636E+6;1.801740E+1;-4.741300E+1
1.338740E+6;1.900870E+1;-5.032380E+1
1.238891E+6;2.005430E+1;-5.342680E+1
1.146489E+6;2.116670E+1;-5.673740E+1
1.060979E+6;2.233520E+1;-6.026590E+1
9.818463E+5;2.357850E+1;-6.403310E+1
9.086159E+5;2.490620E+1;-6.805120E+1
8.408474E+5;2.631100E+1;-7.234100E+1
7.781333E+5;2.779050E+1;-7.690580E+1
7.200968E+5;2.937220E+1;-8.178450E+1
6.663888E+5;3.106950E+1;-8.698960E+1
6.166866E+5;3.287110E+1;-9.255490E+1
5.706914E+5;3.479830E+1;-9.848590E+1
5.281268E+5;3.685660E+1;-1.048180E+2
4.887368E+5;3.906860E+1;-1.115800E+2
4.522847E+5;4.143920E+1;-1.187870E+2
4.185513E+5;4.397300E+1;-1.264800E+2
3.873339E+5;4.671730E+1;-1.346790E+2
3.584449E+5;4.970080E+1;-1.435290E+2
3.317105E+5;5.290090E+1;-1.528670E+2
3.069701E+5;5.637280E+1;-1.628310E+2
2.840749E+5;6.013100E+1;-1.734450E+2
2.628874E+5;6.421580E+1;-1.847400E+2
2.432801E+5;6.866100E+1;-1.967730E+2
2.251352E+5;7.351080E+1;-2.095720E+2
2.083436E+5;7.879380E+1;-2.231790E+2
1.928044E+5;8.456070E+1;-2.376180E+2
1.784242E+5;9.086450E+1;-2.529540E+2
1.651166E+5;9.776430E+1;-2.692190E+2
1.528015E+5;1.053030E+2;-2.864520E+2
1.414049E+5;1.135530E+2;-3.046730E+2
1.308583E+5;1.225890E+2;-3.239440E+2
1.210983E+5;1.324710E+2;-3.442750E+2
1.120663E+5;1.432860E+2;-3.657180E+2
1.037079E+5;1.551290E+2;-3.882810E+2
9.597288E+4;1.680670E+2;-4.119930E+2
8.881481E+4;1.822150E+2;-4.368880E+2
8.219061E+4;1.976720E+2;-4.629730E+2
7.606048E+4;2.145370E+2;-4.902310E+2
7.038756E+4;2.329290E+2;-5.186950E+2
6.513774E+4;2.529390E+2;-5.483150E+2
6.027949E+4;2.747550E+2;-5.791040E+2
5.578358E+4;2.984250E+2;-6.110270E+2
5.162300E+4;3.241000E+2;-6.439830E+2
4.777273E+4;3.519310E+2;-6.780050E+2
4.420963E+4;3.820400E+2;-7.129930E+2
4.091228E+4;4.145030E+2;-7.488240E+2
3.786087E+4;4.494860E+2;-7.854230E+2
3.503704E+4;4.871440E+2;-8.226780E+2
3.242382E+4;5.274740E+2;-8.604170E+2
3.000551E+4;5.706760E+2;-8.985120E+2
2.776757E+4;6.168090E+2;-9.368250E+2
2.569654E+4;6.659590E+2;-9.751070E+2
2.377998E+4;7.181140E+2;-1.013180E+3
2.200637E+4;7.733890E+2;-1.050820E+3
2.036504E+4;8.317560E+2;-1.087850E+3
1.884612E+4;8.931980E+2;-1.123960E+3
1.744050E+4;9.577190E+2;-1.158930E+3
1.613971E+4;1.025160E+3;-1.192520E+3
1.493594E+4;1.095460E+3;-1.224390E+3
1.382195E+4;1.168600E+3;-1.254660E+3
1.279105E+4;1.244360E+3;-1.282620E+3
1.183704E+4;1.322390E+3;-1.308280E+3
1.095418E+4;1.402660E+3;-1.331420E+3
1.013717E+4;1.485000E+3;-1.351790E+3
9.381096E+3;1.568950E+3;-1.369270E+3
8.681413E+3;1.654290E+3;-1.383870E+3
8.033915E+3;1.740730E+3;-1.395120E+3
7.434711E+3;1.827970E+3;-1.403520E+3
6.880198E+3;1.915670E+3;-1.408280E+3
6.367042E+3;2.003960E+3;-1.410150E+3
5.892161E+3;2.091850E+3;-1.408670E+3
5.452698E+3;2.179000E+3;-1.403960E+3
5.046012E+3;2.265660E+3;-1.396090E+3
4.669658E+3;2.351450E+3;-1.385080E+3
4.321375E+3;2.436140E+3;-1.371430E+3
3.999068E+3;2.518980E+3;-1.354840E+3
3.700800E+3;2.599820E+3;-1.335790E+3
3.424778E+3;2.679510E+3;-1.314520E+3
3.169343E+3;2.756440E+3;-1.290960E+3
2.932960E+3;2.831220E+3;-1.264920E+3
2.714207E+3;2.903910E+3;-1.237710E+3
2.511769E+3;2.973840E+3;-1.208410E+3
2.324431E+3;3.041810E+3;-1.178230E+3
2.151064E+3;3.106590E+3;-1.146210E+3
1.990629E+3;3.168720E+3;-1.113770E+3
1.842159E+3;3.227840E+3;-1.080290E+3
1.704763E+3;3.285340E+3;-1.046460E+3
1.577614E+3;3.338700E+3;-1.011810E+3
1.459949E+3;3.390080E+3;-9.770040E+2
1.351059E+3;3.439090E+3;-9.421280E+2
1.250291E+3;3.485070E+3;-9.074770E+2
1.157039E+3;3.528310E+3;-8.721690E+2
1.070742E+3;3.570380E+3;-8.382090E+2
9.908816E+2;3.608970E+3;-8.042400E+2
9.169773E+2;3.645670E+3;-7.709400E+2
8.485852E+2;3.679670E+3;-7.375900E+2
7.852940E+2;3.712260E+3;-7.052920E+2
7.267233E+2;3.742460E+3;-6.733950E+2
6.725211E+2;3.770760E+3;-6.427080E+2
6.223616E+2;3.797290E+3;-6.133740E+2
5.759431E+2;3.821710E+3;-5.834340E+2
5.329868E+2;3.844980E+3;-5.557590E+2
4.932343E+2;3.867010E+3;-5.282580E+2
4.564467E+2;3.886450E+3;-5.022680E+2
4.224029E+2;3.904990E+3;-4.765790E+2
3.908983E+2;3.921580E+3;-4.515630E+2
3.617434E+2;3.938730E+3;-4.281420E+2
3.347630E+2;3.953050E+3;-4.058130E+2
3.097949E+2;3.966300E+3;-3.850050E+2
2.866891E+2;3.979570E+3;-3.637660E+2
2.653065E+2;3.991530E+3;-3.444580E+2
2.455188E+2;4.003060E+3;-3.250920E+2
2.272069E+2;4.012920E+3;-3.076900E+2
2.102609E+2;4.022610E+3;-2.895820E+2
1.945787E+2;4.029790E+3;-2.737310E+2
1.800662E+2;4.038460E+3;-2.586810E+2
1.666360E+2;4.045600E+3;-2.442970E+2
1.542076E+2;4.053830E+3;-2.295660E+2
1.427061E+2;4.060680E+3;-2.165040E+2
1.320625E+2;4.066000E+3;-2.040150E+2
1.222127E+2;4.070820E+3;-1.924380E+2
1.130975E+2;4.075840E+3;-1.815060E+2
1.046622E+2;4.080180E+3;-1.706600E+2
9.685606E+1;4.085230E+3;-1.596350E+2
8.963211E+1;4.088260E+3;-1.498910E+2
8.294696E+1;4.092810E+3;-1.416850E+2
7.676041E+1;4.096850E+3;-1.351090E+2
7.103528E+1;4.099860E+3;-1.248470E+2
6.573716E+1;4.101450E+3;-1.168810E+2
6.083420E+1;4.104430E+3;-1.113410E+2
5.629692E+1;4.107780E+3;-1.047830E+2
5.209805E+1;4.109070E+3;-9.714280E+1
4.821235E+1;4.111460E+3;-9.162950E+1
4.461646E+1;4.112400E+3;-8.571430E+1
4.128877E+1;4.114250E+3;-8.037470E+1
3.820927E+1;4.115940E+3;-7.651860E+1
3.535946E+1;4.119520E+3;-7.211350E+1
3.272220E+1;4.119430E+3;-6.565290E+1
3.028163E+1;4.123450E+3;-6.405320E+1
2.802310E+1;4.124180E+3;-5.742450E+1
2.593301E+1;4.125270E+3;-5.724480E+1
2.399882E+1;4.127490E+3;-5.282830E+1
2.220888E+1;4.126520E+3;-4.968160E+1
2.055244E+1;4.129490E+3;-4.533950E+1
1.901955E+1;4.130170E+3;-4.446760E+1
1.760099E+1;4.133340E+3;-4.245780E+1
1.628823E+1;4.133670E+3;-3.707120E+1
1.507339E+1;4.134650E+3;-3.523660E+1
1.394915E+1;4.136200E+3;-3.459590E+1
1.290876E+1;4.134600E+3;-3.433210E+1
1.194597E+1;4.138130E+3;-3.185670E+1
1.105498E+1;4.139330E+3;-2.702380E+1
1.023046E+1;4.138400E+3;-2.109620E+1
9.467424E+0;4.140310E+3;-2.696760E+1
8.761302E+0;4.141300E+3;-2.329920E+1
8.107846E+0;4.140410E+3;-2.459240E+1
7.503127E+0;4.137540E+3;-2.400960E+1
6.943511E+0;4.142200E+3;-2.629740E+1
6.425634E+0;4.138500E+3;-1.308310E+1
5.946382E+0;4.140480E+3;-1.662800E+1
5.502875E+0;4.134460E+3;-1.932260E+1
5.092447E+0;4.132860E+3;-1.817710E+1
4.712630E+0;4.136280E+3;-2.003960E+1
4.361141E+0;4.137400E+3;-2.248170E+1
4.035868E+0;4.145120E+3;-1.123630E+1
3.734856E+0;4.128060E+3;-1.184230E+1
3.456294E+0;4.145780E+3;-1.395490E+1
3.198508E+0;4.139830E+3;-1.070820E+1
2.959950E+0;4.137930E+3;-2.178140E+1
2.739184E+0;4.142350E+3;-2.486040E+0
2.534883E+0;4.142410E+3;-1.063270E+1
2.345821E+0;4.142270E+3;-1.237920E+1
2.170859E+0;4.146180E+3;-5.450360E+0
2.008947E+0;4.139080E+3;-1.134080E+1
1.859111E+0;4.133040E+3;-4.231390E+0
1.720450E+0;4.142270E+3;-8.949460E+0
1.592132E+0;4.132610E+3;-6.411800E+0
1.473384E+0;4.138770E+3;-4.871140E+0
1.363492E+0;4.141400E+3;-7.010430E+0
1.261797E+0;4.140550E+3;-1.100240E+1
1.167687E+0;4.135980E+3;-4.811540E+0
1.080595E+0;4.141220E+3;-7.117190E-1
1.000000E+0;4.133450E+3;-2.240590E+0
Freq /Hz, Zr , Zi ; Name: 50_-500
5.000000E+6;6.873900E+0;-2.070030E+1
4.627078E+6;7.515620E+0;-2.149700E+1
4.281971E+6;8.126980E+0;-2.240840E+1
3.962602E+6;8.721400E+0;-2.341150E+1
3.667054E+6;9.319320E+0;-2.452030E+1
3.393549E+6;9.906550E+0;-2.573200E+1
3.140444E+6;1.050780E+1;-2.704690E+1
2.906216E+6;1.112360E+1;-2.847720E+1
2.689457E+6;1.175000E+1;-3.004970E+1
2.488866E+6;1.240150E+1;-3.170230E+1
2.303236E+6;1.309070E+1;-3.350820E+1
2.131450E+6;1.380290E+1;-3.544130E+1
1.972477E+6;1.455730E+1;-3.751990E+1
1.825361E+6;1.535100E+1;-3.974120E+1
1.689218E+6;1.618290E+1;-4.212210E+1
1.563229E+6;1.706540E+1;-4.467440E+1
1.446636E+6;1.799720E+1;-4.739000E+1
1.338740E+6;1.898290E+1;-5.029490E+1
1.238891E+6;2.002780E+1;-5.339690E+1
1.146489E+6;2.113630E+1;-5.670610E+1
1.060979E+6;2.230790E+1;-6.023480E+1
9.818463E+5;2.355610E+1;-6.399910E+1
9.086159E+5;2.487840E+1;-6.802310E+1
8.408474E+5;2.628000E+1;-7.230320E+1
7.781333E+5;2.776590E+1;-7.687410E+1
7.200968E+5;2.935680E+1;-8.175200E+1
6.663888E+5;3.105090E+1;-8.695450E+1
6.166866E+5;3.285540E+1;-9.250910E+1
5.706914E+5;3.477300E+1;-9.844160E+1
5.281268E+5;3.683130E+1;-1.047610E+2
4.887368E+5;3.904300E+1;-1.115220E+2
4.522847E+5;4.141540E+1;-1.187280E+2
4.185513E+5;4.396340E+1;-1.264180E+2
3.873339E+5;4.670670E+1;-1.346190E+2
3.584449E+5;4.969380E+1;-1.434610E+2
3.317105E+5;5.290000E+1;-1.527980E+2
3.069701E+5;5.637800E+1;-1.627590E+2
2.840749E+5;6.014120E+1;-1.733650E+2
2.628874E+5;6.423730E+1;-1.846640E+2
2.432801E+5;6.868940E+1;-1.966890E+2
2.251352E+5;7.354620E+1;-2.094810E+2
2.083436E+5;7.883450E+1;-2.230680E+2
1.928044E+5;8.462450E+1;-2.375140E+2
1.784242E+5;9.095020E+1;-2.528480E+2
1.651166E+5;9.786660E+1;-2.691040E+2
1.528015E+5;1.054290E+2;-2.863250E+2
1.414049E+5;1.137090E+2;-3.045390E+2
1.308583E+5;1.227690E+2;-3.237920E+2
1.210983E+5;1.326820E+2;-3.441170E+2
1.120663E+5;1.435480E+2;-3.655320E+2
1.037079E+5;1.554250E+2;-3.880810E+2
9.597288E+4;1.684300E+2;-4.117840E+2
8.881481E+4;1.826600E+2;-4.366750E+2
8.219061E+4;1.981880E+2;-4.627320E+2
7.606048E+4;2.151690E+2;-4.899640E+2
7.038756E+4;2.336530E+2;-5.183730E+2
6.513774E+4;2.538150E+2;-5.479580E+2
6.027949E+4;2.757660E+2;-5.787080E+2
5.578358E+4;2.996350E+2;-6.105720E+2
5.162300E+4;3.255140E+2;-6.434600E+2
4.777273E+4;3.536050E+2;-6.773800E+2
4.420963E+4;3.839530E+2;-7.122020E+2
4.091228E+4;4.167270E+2;-7.478870E+2
3.786087E+4;4.521040E+2;-7.842480E+2
3.503704E+4;4.901290E+2;-8.212640E+2
3.242382E+4;5.309720E+2;-8.587280E+2
3.000551E+4;5.747010E+2;-8.964390E+2
2.776757E+4;6.213830E+2;-9.342770E+2
2.569654E+4;6.711290E+2;-9.719350E+2
2.377998E+4;7.239530E+2;-1.009350E+3
2.200637E+4;7.799840E+2;-1.046130E+3
2.036504E+4;8.390730E+2;-1.082180E+3
1.884612E+4;9.012140E+2;-1.117120E+3
1.744050E+4;9.665200E+2;-1.150710E+3
1.613971E+4;1.034850E+3;-1.182760E+3
1.493594E+4;1.105890E+3;-1.212950E+3
1.382195E+4;1.179800E+3;-1.241040E+3
1.279105E+4;1.256150E+3;-1.266760E+3
1.183704E+4;1.334780E+3;-1.289790E+3
1.095418E+4;1.415430E+3;-1.310050E+3
1.013717E+4;1.498000E+3;-1.327420E+3
9.381096E+3;1.581860E+3;-1.341490E+3
8.681413E+3;1.667050E+3;-1.352310E+3
8.033915E+3;1.752920E+3;-1.359800E+3
7.434711E+3;1.839270E+3;-1.363690E+3
6.880198E+3;1.926040E+3;-1.364580E+3
6.367042E+3;2.012320E+3;-1.361570E+3
5.892161E+3;2.098030E+3;-1.355270E+3
5.452698E+3;2.183130E+3;-1.345680E+3
5.046012E+3;2.266820E+3;-1.333020E+3
4.669658E+3;2.349010E+3;-1.317560E+3
4.321375E+3;2.429830E+3;-1.298560E+3
3.999068E+3;2.508180E+3;-1.277520E+3
3.700800E+3;2.584790E+3;-1.253850E+3
3.424778E+3;2.658700E+3;-1.227880E+3
3.169343E+3;2.730150E+3;-1.200080E+3
2.932960E+3;2.799510E+3;-1.170720E+3
2.714207E+3;2.865240E+3;-1.139390E+3
2.511769E+3;2.928350E+3;-1.107180E+3
2.324431E+3;2.988970E+3;-1.074030E+3
2.151064E+3;3.046570E+3;-1.039760E+3
1.990629E+3;3.101430E+3;-1.004850E+3
1.842159E+3;3.153480E+3;-9.698520E+2
1.704763E+3;3.202330E+3;-9.344090E+2
1.577614E+3;3.248600E+3;-8.992580E+2
1.459949E+3;3.292590E+3;-8.637000E+2
1.351059E+3;3.333940E+3;-8.284860E+2
1.250291E+3;3.372130E+3;-7.946330E+2
1.157039E+3;3.408900E+3;-7.601050E+2
1.070742E+3;3.442650E+3;-7.259460E+2
9.908816E+2;3.474860E+3;-6.934570E+2
9.169773E+2;3.503780E+3;-6.614800E+2
8.485852E+2;3.531270E+3;-6.308120E+2
7.852940E+2;3.557750E+3;-6.004630E+2
7.267233E+2;3.581480E+3;-5.706300E+2
6.725211E+2;3.603870E+3;-5.422550E+2
6.223616E+2;3.624540E+3;-5.151400E+2
5.759431E+2;3.643190E+3;-4.887300E+2
5.329868E+2;3.661080E+3;-4.626760E+2
4.932343E+2;3.677910E+3;-4.386490E+2
4.564467E+2;3.693090E+3;-4.155750E+2
4.224029E+2;3.706890E+3;-3.930640E+2
3.908983E+2;3.719790E+3;-3.723190E+2
3.617434E+2;3.731980E+3;-3.510120E+2
3.347630E+2;3.743170E+3;-3.312250E+2
3.097949E+2;3.753330E+3;-3.135140E+2
2.866891E+2;3.762610E+3;-2.952870E+2
2.653065E+2;3.772260E+3;-2.785820E+2
2.455188E+2;3.780230E+3;-2.637190E+2
2.272069E+2;3.788290E+3;-2.479110E+2
2.102609E+2;3.794410E+3;-2.336680E+2
1.945787E+2;3.800840E+3;-2.198770E+2
1.800662E+2;3.806430E+3;-2.065160E+2
1.666360E+2;3.812360E+3;-1.947090E+2
1.542076E+2;3.817810E+3;-1.838300E+2
1.427061E+2;3.821920E+3;-1.728600E+2
1.320625E+2;3.827140E+3;-1.621400E+2
1.222127E+2;3.830550E+3;-1.528010E+2
1.130975E+2;3.834790E+3;-1.437980E+2
1.046622E+2;3.838530E+3;-1.343210E+2
9.685606E+1;3.841180E+3;-1.271680E+2
8.963211E+1;3.842990E+3;-1.180850E+2
8.294696E+1;3.846300E+3;-1.125270E+2
7.676041E+1;3.849470E+3;-1.066560E+2
7.103528E+1;3.850880E+3;-1.006320E+2
6.573716E+1;3.852000E+3;-9.325410E+1
6.083420E+1;3.855690E+3;-8.964360E+1
5.629692E+1;3.858320E+3;-8.342360E+1
5.209805E+1;3.860140E+3;-7.773630E+1
4.821235E+1;3.861930E+3;-7.364320E+1
4.461646E+1;3.861920E+3;-6.678560E+1
4.128877E+1;3.862970E+3;-6.418710E+1
3.820927E+1;3.864890E+3;-6.120710E+1
3.535946E+1;3.867560E+3;-5.519650E+1
3.272220E+1;3.865040E+3;-5.414300E+1
3.028163E+1;3.868710E+3;-4.874910E+1
2.802310E+1;3.867800E+3;-4.527460E+1
2.593301E+1;3.872910E+3;-4.213590E+1
2.399882E+1;3.870260E+3;-4.219480E+1
2.220888E+1;3.872810E+3;-4.030130E+1
2.055244E+1;3.868880E+3;-3.580130E+1
1.901955E+1;3.872110E+3;-3.286620E+1
1.760099E+1;3.879140E+3;-2.923030E+1
1.628823E+1;3.874350E+3;-3.001500E+1
1.507339E+1;3.876540E+3;-2.854430E+1
1.394915E+1;3.874830E+3;-2.453500E+1
1.290876E+1;3.882530E+3;-3.046970E+1
1.194597E+1;3.880390E+3;-2.347560E+1
1.105498E+1;3.876530E+3;-1.842600E+1
1.023046E+1;3.878310E+3;-1.707720E+1
9.467424E+0;3.877250E+3;-2.214590E+1
8.761302E+0;3.875420E+3;-1.803630E+1
8.107846E+0;3.881560E+3;-1.477050E+1
7.503127E+0;3.890580E+3;-1.787830E+1
6.943511E+0;3.887820E+3;-4.647250E+0
6.425634E+0;3.874040E+3;-1.546020E+1
5.946382E+0;3.877960E+3;-8.918200E+0
5.502875E+0;3.891310E+3;-2.678830E+1
5.092447E+0;3.895100E+3;-2.322540E+1
4.712630E+0;3.892210E+3;-2.158400E+1
4.361141E+0;3.895480E+3;-1.055630E+1
4.035868E+0;3.874820E+3;-5.784020E+0
3.734856E+0;3.881540E+3;-2.067240E+1
3.456294E+0;3.882700E+3;1.350840E+0
3.198508E+0;3.881760E+3;-1.768230E+1
2.959950E+0;3.893590E+3;-1.399310E+1
2.739184E+0;3.874630E+3;-7.647760E+0
2.534883E+0;3.881310E+3;-1.707370E+0
2.345821E+0;3.877180E+3;-5.907870E+0
2.170859E+0;3.874290E+3;2.239320E+0
2.008947E+0;3.887560E+3;-7.001580E+0
1.859111E+0;3.872750E+3;-8.394330E+0
1.720450E+0;3.881650E+3;-4.349130E+0
1.592132E+0;3.886420E+3;-7.795010E+0
1.473384E+0;3.872760E+3;-1.382920E+1
1.363492E+0;3.877300E+3;-4.553470E+0
1.261797E+0;3.881590E+3;-6.586210E-1
1.167687E+0;3.883130E+3;5.180180E-1
1.080595E+0;3.887840E+3;-4.466820E+0
1.000000E+0;3.877380E+3;-9.531700E+0
Freq /Hz, Zr , Zi ; Name: 50_5000
5.000000E+6;1.627290E+1;1.770550E+1
4.627078E+6;1.633930E+1;1.436170E+1
4.281971E+6;1.633940E+1;1.088750E+1
3.962602E+6;1.641420E+1;7.526350E+0
3.667054E+6;1.654060E+1;4.229220E+0
3.393549E+6;1.671680E+1;1.002680E+0
3.140444E+6;1.695870E+1;-2.182110E+0
2.906216E+6;1.723030E+1;-5.344230E+0
2.689457E+6;1.756550E+1;-8.508010E+0
2.488866E+6;1.795560E+1;-1.163920E+1
2.303236E+6;1.840480E+1;-1.481510E+1
2.131450E+6;1.889290E+1;-1.802040E+1
1.972477E+6;1.944170E+1;-2.127260E+1
1.825361E+6;2.005950E+1;-2.459320E+1
1.689218E+6;2.072890E+1;-2.798190E+1
1.563229E+6;2.145450E+1;-3.146200E+1
1.446636E+6;2.224280E+1;-3.504820E+1
1.338740E+6;2.309500E+1;-3.876660E+1
1.238891E+6;2.401380E+1;-4.260520E+1
1.146489E+6;2.501250E+1;-4.660690E+1
1.060979E+6;2.608370E+1;-5.077290E+1
9.818463E+5;2.722010E+1;-5.514160E+1
9.086159E+5;2.845230E+1;-5.971420E+1
8.408474E+5;2.977960E+1;-6.449950E+1
7.781333E+5;3.118240E+1;-6.953790E+1
7.200968E+5;3.270150E+1;-7.486240E+1
6.663888E+5;3.431390E+1;-8.046750E+1
6.166866E+5;3.606980E+1;-8.639990E+1
5.706914E+5;3.794910E+1;-9.268940E+1
5.281268E+5;3.995670E+1;-9.933550E+1
4.887368E+5;4.213580E+1;-1.063820E+2
4.522847E+5;4.447010E+1;-1.138650E+2
4.185513E+5;4.699940E+1;-1.217850E+2
3.873339E+5;4.974610E+1;-1.302280E+2
3.584449E+5;5.274020E+1;-1.392820E+2
3.317105E+5;5.597320E+1;-1.488070E+2
3.069701E+5;5.947230E+1;-1.589230E+2
2.840749E+5;6.330480E+1;-1.696840E+2
2.628874E+5;6.747840E+1;-1.811220E+2
2.432801E+5;7.201560E+1;-1.932410E+2
2.251352E+5;7.700760E+1;-2.061230E+2
2.083436E+5;8.246080E+1;-2.197890E+2
1.928044E+5;8.844810E+1;-2.342800E+2
1.784242E+5;9.501820E+1;-2.496250E+2
1.651166E+5;1.021980E+2;-2.658780E+2
1.528015E+5;1.100850E+2;-2.830380E+2
1.414049E+5;1.187700E+2;-3.011550E+2
1.308583E+5;1.282790E+2;-3.202780E+2
1.210983E+5;1.387450E+2;-3.404140E+2
1.120663E+5;1.502230E+2;-3.615860E+2
1.037079E+5;1.628290E+2;-3.838120E+2
9.597288E+4;1.766370E+2;-4.071100E+2
8.881481E+4;1.918590E+2;-4.314890E+2
8.219061E+4;2.084670E+2;-4.568990E+2
7.606048E+4;2.266810E+2;-4.833220E+2
7.038756E+4;2.465470E+2;-5.107880E+2
6.513774E+4;2.683090E+2;-5.391940E+2
6.027949E+4;2.920210E+2;-5.685220E+2
5.578358E+4;3.177920E+2;-5.986500E+2
5.162300E+4;3.458140E+2;-6.294900E+2
4.777273E+4;3.762500E+2;-6.609780E+2
4.420963E+4;4.091500E+2;-6.929840E+2
4.091228E+4;4.447650E+2;-7.253020E+2
3.786087E+4;4.830870E+2;-7.577760E+2
3.503704E+4;5.242220E+2;-7.900930E+2
3.242382E+4;5.681730E+2;-8.221230E+2
3.000551E+4;6.151390E+2;-8.534450E+2
2.776757E+4;6.650270E+2;-8.840630E+2
2.569654E+4;7.178040E+2;-9.135850E+2
2.377998E+4;7.736020E+2;-9.416700E+2
2.200637E+4;8.321700E+2;-9.677120E+2
2.036504E+4;8.931600E+2;-9.919710E+2
1.884612E+4;9.569510E+2;-1.013820E+3
1.744050E+4;1.022880E+3;-1.033200E+3
1.613971E+4;1.090870E+3;-1.049470E+3
1.493594E+4;1.160400E+3;-1.062650E+3
1.382195E+4;1.231300E+3;-1.072590E+3
1.279105E+4;1.302960E+3;-1.078990E+3
1.183704E+4;1.375440E+3;-1.081890E+3
1.095418E+4;1.447780E+3;-1.081310E+3
1.013717E+4;1.519960E+3;-1.076900E+3
9.381096E+3;1.591450E+3;-1.069240E+3
8.681413E+3;1.661950E+3;-1.058220E+3
8.033915E+3;1.730920E+3;-1.043610E+3
7.434711E+3;1.798120E+3;-1.025590E+3
6.880198E+3;1.863190E+3;-1.005790E+3
6.367042E+3;1.925620E+3;-9.824660E+2
5.892161E+3;1.985880E+3;-9.577340E+2
5.452698E+3;2.043280E+3;-9.309560E+2
5.046012E+3;2.098100E+3;-9.024630E+2
4.669658E+3;2.150440E+3;-8.716870E+2
4.321375E+3;2.198710E+3;-8.409700E+2
3.999068E+3;2.244070E+3;-8.093830E+2
3.700800E+3;2.286600E+3;-7.777860E+2
3.424778E+3;2.327300E+3;-7.448620E+2
3.169343E+3;2.364390E+3;-7.125540E+2
2.932960E+3;2.398250E+3;-6.806210E+2
2.714207E+3;2.430630E+3;-6.489180E+2
2.511769E+3;2.460090E+3;-6.180970E+2
2.324431E+3;2.487520E+3;-5.868490E+2
2.151064E+3;2.512830E+3;-5.575690E+2
1.990629E+3;2.535130E+3;-5.283100E+2
1.842159E+3;2.555820E+3;-5.001370E+2
1.704763E+3;2.575360E+3;-4.724420E+2
1.577614E+3;2.593550E+3;-4.470260E+2
1.459949E+3;2.608420E+3;-4.217000E+2
1.351059E+3;2.623680E+3;-3.981640E+2
1.250291E+3;2.637200E+3;-3.752130E+2
1.157039E+3;2.649850E+3;-3.545250E+2
1.070742E+3;2.660730E+3;-3.319470E+2
9.908816E+2;2.670590E+3;-3.143960E+2
9.169773E+2;2.679180E+3;-2.938840E+2
8.485852E+2;2.688710E+3;-2.768060E+2
7.852940E+2;2.696010E+3;-2.592910E+2
7.267233E+2;2.702060E+3;-2.451600E+2
6.725211E+2;2.707200E+3;-2.294450E+2
6.223616E+2;2.713650E+3;-2.164290E+2
5.759431E+2;2.721200E+3;-2.013170E+2
5.329868E+2;2.725740E+3;-1.889520E+2
4.932343E+2;2.730380E+3;-1.789740E+2
4.564467E+2;2.734380E+3;-1.656410E+2
4.224029E+2;2.738280E+3;-1.564650E+2
3.908983E+2;2.741130E+3;-1.470990E+2
3.617434E+2;2.743120E+3;-1.358040E+2
3.347630E+2;2.745090E+3;-1.271610E+2
3.097949E+2;2.749970E+3;-1.224270E+2
2.866891E+2;2.750510E+3;-1.126000E+2
2.653065E+2;2.754870E+3;-1.055740E+2
2.455188E+2;2.755480E+3;-9.749100E+1
2.272069E+2;2.758250E+3;-9.025110E+1
2.102609E+2;2.760190E+3;-8.670890E+1
1.945787E+2;2.761110E+3;-8.068920E+1
1.800662E+2;2.759510E+3;-7.875980E+1
1.666360E+2;2.762670E+3;-6.941300E+1
1.542076E+2;2.764170E+3;-6.417300E+1
1.427061E+2;2.766360E+3;-6.188180E+1
1.320625E+2;2.767240E+3;-5.832000E+1
1.222127E+2;2.771380E+3;-5.144980E+1
1.130975E+2;2.768100E+3;-5.023050E+1
1.046622E+2;2.773630E+3;-4.869390E+1
9.685606E+1;2.765870E+3;-4.386390E+1
8.963211E+1;2.765560E+3;-4.793720E+1
8.294696E+1;2.774050E+3;-3.951650E+1
7.676041E+1;2.768620E+3;-3.709520E+1
7.103528E+1;2.768850E+3;-4.134610E+1
6.573716E+1;2.774180E+3;-3.560510E+1
6.083420E+1;2.779530E+3;-2.954640E+1
5.629692E+1;2.778520E+3;-2.805410E+1
5.209805E+1;2.768010E+3;-3.159380E+1
4.821235E+1;2.777410E+3;-2.695110E+1
4.461646E+1;2.767410E+3;-2.316650E+1
4.128877E+1;2.785050E+3;-1.681120E+1
3.820927E+1;2.785630E+3;-2.332300E+1
3.535946E+1;2.768660E+3;-2.606540E+1
3.272220E+1;2.793320E+3;-2.512760E+1
3.028163E+1;2.768880E+3;-1.555360E+1
2.802310E+1;2.764790E+3;-1.479630E+1
2.593301E+1;2.775050E+3;6.446420E+0
2.399882E+1;2.778980E+3;-1.996050E+1
2.220888E+1;2.781760E+3;-2.896240E+0
2.055244E+1;2.770790E+3;-2.301690E+1
1.901955E+1;2.769660E+3;-4.273910E+0
1.760099E+1;2.751750E+3;1.467810E+1
1.628823E+1;2.782920E+3;-1.929050E+1
1.507339E+1;2.780440E+3;-2.170680E+0
1.394915E+1;2.766160E+3;-1.320860E+1
1.290876E+1;2.819450E+3;1.503620E+1
1.194597E+1;2.784900E+3;-5.162150E+0
1.105498E+1;2.761540E+3;-1.397170E+1
1.023046E+1;2.780530E+3;-3.376420E+0
9.467424E+0;2.787080E+3;-5.844570E+0
8.761302E+0;2.750500E+3;-7.080310E-1
8.107846E+0;2.789170E+3;4.827900E+1
7.503127E+0;2.809070E+3;7.569810E+1
6.943511E+0;2.722710E+3;6.400320E+1
6.425634E+0;2.776770E+3;-3.247200E+1
5.946382E+0;2.766260E+3;1.871460E+1
5.502875E+0;2.852900E+3;4.987620E+1
5.092447E+0;2.890680E+3;2.151350E+1
4.712630E+0;2.881080E+3;3.933450E+1
4.361141E+0;2.803580E+3;1.069940E+2
4.035868E+0;2.732870E+3;-3.320860E+0
3.734856E+0;2.874380E+3;-4.218250E+1
3.456294E+0;2.863400E+3;5.364120E+1
3.198508E+0;2.758180E+3;1.099630E+1
2.959950E+0;2.808530E+3;-5.563490E+1
2.739184E+0;2.760420E+3;2.379150E+1
2.534883E+0;2.809410E+3;-9.739040E+0
2.345821E+0;2.768570E+3;-2.627010E+0
2.170859E+0;2.801900E+3;2.601490E+1
2.008947E+0;2.800370E+3;-4.073250E+1
1.859111E+0;2.725110E+3;1.864060E+1
1.720450E+0;2.809120E+3;2.811120E+1
1.592132E+0;2.790330E+3;-5.121260E+1
1.473384E+0;2.739200E+3;-1.443440E+1
1.363492E+0;2.773850E+3;2.634900E+1
1.261797E+0;2.780740E+3;-3.717520E+0
1.167687E+0;2.770760E+3;-2.118260E+1
1.080595E+0;2.743160E+3;7.198000E+0
1.000000E+0;2.775680E+3;3.635560E+1
Freq /Hz, Zr , Zi ; Name: 50_4000
5.000000E+6;1.616660E+1;1.751960E+1
4.627078E+6;1.629800E+1;1.396350E+1
4.281971E+6;1.630480E+1;1.052830E+1
3.962602E+6;1.635730E+1;7.188770E+0
3.667054E+6;1.648290E+1;3.919130E+0
3.393549E+6;1.665120E+1;7.153020E-1
3.140444E+6;1.689050E+1;-2.452540E+0
2.906216E+6;1.716790E+1;-5.597410E+0
2.689457E+6;1.749880E+1;-8.740770E+0
2.488866E+6;1.788120E+1;-1.186770E+1
2.303236E+6;1.832210E+1;-1.502620E+1
2.131450E+6;1.882000E+1;-1.821360E+1
1.972477E+6;1.936720E+1;-2.145900E+1
1.825361E+6;1.997450E+1;-2.477290E+1
1.689218E+6;2.064740E+1;-2.814580E+1
1.563229E+6;2.136680E+1;-3.161960E+1
1.446636E+6;2.216630E+1;-3.520200E+1
1.338740E+6;2.300320E+1;-3.890030E+1
1.238891E+6;2.393380E+1;-4.273700E+1
1.146489E+6;2.493470E+1;-4.673460E+1
1.060979E+6;2.599640E+1;-5.089900E+1
9.818463E+5;2.714790E+1;-5.526950E+1
9.086159E+5;2.836090E+1;-5.982290E+1
8.408474E+5;2.966500E+1;-6.462050E+1
7.781333E+5;3.108460E+1;-6.966090E+1
7.200968E+5;3.259730E+1;-7.498620E+1
6.663888E+5;3.421250E+1;-8.059070E+1
6.166866E+5;3.595430E+1;-8.651210E+1
5.706914E+5;3.782840E+1;-9.280800E+1
5.281268E+5;3.982440E+1;-9.944160E+1
4.887368E+5;4.198200E+1;-1.065120E+2
4.522847E+5;4.430860E+1;-1.139780E+2
4.185513E+5;4.681760E+1;-1.219280E+2
3.873339E+5;4.952680E+1;-1.303740E+2
3.584449E+5;5.250820E+1;-1.394310E+2
3.317105E+5;5.570910E+1;-1.489680E+2
3.069701E+5;5.917870E+1;-1.591090E+2
2.840749E+5;6.296130E+1;-1.698840E+2
2.628874E+5;6.707450E+1;-1.813370E+2
2.432801E+5;7.156800E+1;-1.934750E+2
2.251352E+5;7.649010E+1;-2.064040E+2
2.083436E+5;8.185770E+1;-2.201070E+2
1.928044E+5;8.775600E+1;-2.346330E+2
1.784242E+5;9.419860E+1;-2.500200E+2
1.651166E+5;1.012670E+2;-2.663400E+2
1.528015E+5;1.090110E+2;-2.835850E+2
1.414049E+5;1.175300E+2;-3.017860E+2
1.308583E+5;1.268710E+2;-3.210270E+2
1.210983E+5;1.371210E+2;-3.412820E+2
1.120663E+5;1.483760E+2;-3.626480E+2
1.037079E+5;1.607150E+2;-3.850660E+2
9.597288E+4;1.742390E+2;-4.085510E+2
8.881481E+4;1.890500E+2;-4.331590E+2
8.219061E+4;2.053170E+2;-4.589040E+2
7.606048E+4;2.231180E+2;-4.857460E+2
7.038756E+4;2.425700E+2;-5.136590E+2
6.513774E+4;2.638720E+2;-5.426810E+2
6.027949E+4;2.870810E+2;-5.726850E+2
5.578358E+4;3.122600E+2;-6.035270E+2
5.162300E+4;3.397020E+2;-6.352580E+2
4.777273E+4;3.694520E+2;-6.677630E+2
4.420963E+4;4.016920E+2;-7.008210E+2
4.091228E+4;4.365500E+2;-7.344280E+2
3.786087E+4;4.740890E+2;-7.683280E+2
3.503704E+4;5.145880E+2;-8.024100E+2
3.242382E+4;5.579610E+2;-8.363360E+2
3.000551E+4;6.043410E+2;-8.699440E+2
2.776757E+4;6.537110E+2;-9.031220E+2
2.569654E+4;7.062100E+2;-9.354610E+2
2.377998E+4;7.618130E+2;-9.666470E+2
2.200637E+4;8.204950E+2;-9.962710E+2
2.036504E+4;8.820380E+2;-1.024280E+3
1.884612E+4;9.464430E+2;-1.050270E+3
1.744050E+4;1.013470E+3;-1.073750E+3
1.613971E+4;1.082870E+3;-1.094670E+3
1.493594E+4;1.154260E+3;-1.112560E+3
1.382195E+4;1.227490E+3;-1.127470E+3
1.279105E+4;1.301940E+3;-1.138590E+3
1.183704E+4;1.377650E+3;-1.146430E+3
1.095418E+4;1.454070E+3;-1.150580E+3
1.013717E+4;1.530530E+3;-1.151050E+3
9.381096E+3;1.607100E+3;-1.147640E+3
8.681413E+3;1.682760E+3;-1.140750E+3
8.033915E+3;1.757140E+3;-1.129980E+3
7.434711E+3;1.831040E+3;-1.116330E+3
6.880198E+3;1.903240E+3;-1.099370E+3
6.367042E+3;1.972570E+3;-1.078700E+3
5.892161E+3;2.039590E+3;-1.055970E+3
5.452698E+3;2.104520E+3;-1.030520E+3
5.046012E+3;2.166690E+3;-1.003400E+3
4.669658E+3;2.226070E+3;-9.741260E+2
4.321375E+3;2.281480E+3;-9.437720E+2
3.999068E+3;2.335660E+3;-9.111980E+2
3.700800E+3;2.385460E+3;-8.777230E+2
3.424778E+3;2.432430E+3;-8.452430E+2
3.169343E+3;2.475960E+3;-8.109900E+2
2.932960E+3;2.517800E+3;-7.768640E+2
2.714207E+3;2.556060E+3;-7.435640E+2
2.511769E+3;2.591550E+3;-7.099620E+2
2.324431E+3;2.623800E+3;-6.762930E+2
2.151064E+3;2.654960E+3;-6.433940E+2
1.990629E+3;2.682560E+3;-6.122160E+2
1.842159E+3;2.708310E+3;-5.812190E+2
1.704763E+3;2.732020E+3;-5.506880E+2
1.577614E+3;2.753140E+3;-5.203320E+2
1.459949E+3;2.773700E+3;-4.949120E+2
1.351059E+3;2.792110E+3;-4.659210E+2
1.250291E+3;2.808330E+3;-4.406390E+2
1.157039E+3;2.822610E+3;-4.161540E+2
1.070742E+3;2.838410E+3;-3.932000E+2
9.908816E+2;2.849470E+3;-3.704510E+2
9.169773E+2;2.860250E+3;-3.478440E+2
8.485852E+2;2.872560E+3;-3.280430E+2
7.852940E+2;2.881570E+3;-3.071020E+2
7.267233E+2;2.889890E+3;-2.904450E+2
6.725211E+2;2.899760E+3;-2.718630E+2
6.223616E+2;2.906370E+3;-2.548730E+2
5.759431E+2;2.913930E+3;-2.395490E+2
5.329868E+2;2.917460E+3;-2.267430E+2
4.932343E+2;2.924880E+3;-2.138230E+2
4.564467E+2;2.930830E+3;-1.992130E+2
4.224029E+2;2.934870E+3;-1.876610E+2
3.908983E+2;2.936290E+3;-1.750300E+2
3.617434E+2;2.945230E+3;-1.636910E+2
3.347630E+2;2.945300E+3;-1.540150E+2
3.097949E+2;2.949610E+3;-1.480400E+2
2.866891E+2;2.954240E+3;-1.344130E+2
2.653065E+2;2.958200E+3;-1.276910E+2
2.455188E+2;2.957250E+3;-1.174060E+2
2.272069E+2;2.958240E+3;-1.123130E+2
2.102609E+2;2.963410E+3;-1.039890E+2
1.945787E+2;2.961650E+3;-9.763040E+1
1.800662E+2;2.962850E+3;-8.946630E+1
1.666360E+2;2.967790E+3;-8.578940E+1
1.542076E+2;2.967630E+3;-7.961440E+1
1.427061E+2;2.974650E+3;-7.210730E+1
1.320625E+2;2.972510E+3;-6.982490E+1
1.222127E+2;2.975800E+3;-6.726300E+1
1.130975E+2;2.970960E+3;-6.000250E+1
1.046622E+2;2.972800E+3;-6.235870E+1
9.685606E+1;2.976650E+3;-5.676010E+1
8.963211E+1;2.984840E+3;-5.068640E+1
8.294696E+1;2.981790E+3;-4.815930E+1
7.676041E+1;2.977250E+3;-4.619140E+1
7.103528E+1;2.979080E+3;-4.195610E+1
6.573716E+1;2.983300E+3;-3.609160E+1
6.083420E+1;2.978840E+3;-3.118670E+1
5.629692E+1;2.978940E+3;-3.244260E+1
5.209805E+1;2.978120E+3;-4.075170E+1
4.821235E+1;2.977940E+3;-2.867330E+1
4.461646E+1;2.989550E+3;-2.480430E+1
4.128877E+1;2.981440E+3;-1.447070E+1
3.820927E+1;2.984460E+3;-2.360010E+1
3.535946E+1;2.985550E+3;-3.009520E+1
3.272220E+1;2.986350E+3;-8.657290E+0
3.028163E+1;2.988270E+3;-2.806140E+1
2.802310E+1;2.998200E+3;-2.363990E+1
2.593301E+1;2.981390E+3;-3.370170E+1
2.399882E+1;2.987290E+3;-8.049380E+0
2.220888E+1;2.981500E+3;-2.070120E+1
2.055244E+1;2.992020E+3;-4.166920E+0
1.901955E+1;2.984580E+3;-2.304450E+1
1.760099E+1;2.972780E+3;-4.030880E+1
1.628823E+1;2.988680E+3;-6.037090E+0
1.507339E+1;2.978360E+3;-1.756750E+1
1.394915E+1;2.992860E+3;-1.810280E+1
1.290876E+1;2.946300E+3;-9.617150E+0
1.194597E+1;2.987180E+3;-2.029920E+1
1.105498E+1;2.987080E+3;-4.428270E+0
1.023046E+1;2.984920E+3;-6.411670E+0
9.467424E+0;2.989470E+3;-1.265970E+1
8.761302E+0;2.987100E+3;1.861510E+1
8.107846E+0;3.028520E+3;-1.493090E+1
7.503127E+0;3.045470E+3;-4.225020E+1
6.943511E+0;3.043120E+3;3.185970E+1
6.425634E+0;2.962480E+3;-7.302570E+0
5.946382E+0;3.012160E+3;7.295750E+0
5.502875E+0;3.030060E+3;-7.119360E+1
5.092447E+0;2.997160E+3;-9.580340E+1
4.712630E+0;3.006450E+3;-9.431940E+1
4.361141E+0;3.081490E+3;-1.854850E+1
4.035868E+0;2.983940E+3;4.398120E+1
3.734856E+0;2.931470E+3;-7.252530E+1
3.456294E+0;3.043760E+3;-6.940230E+1
3.198508E+0;2.996480E+3;2.004880E+1
2.959950E+0;2.936400E+3;-2.717850E+1
2.739184E+0;3.007510E+3;1.527590E+1
2.534883E+0;2.963190E+3;-4.653560E+0
2.345821E+0;3.007400E+3;-1.439340E+1
2.170859E+0;2.954260E+3;-1.544970E+1
2.008947E+0;2.964330E+3;3.221810E+1
1.859111E+0;3.034530E+3;-2.728560E+1
1.720450E+0;2.975010E+3;-3.230860E+1
1.592132E+0;2.964040E+3;4.631600E+1
1.473384E+0;3.029940E+3;6.694050E+0
1.363492E+0;2.989530E+3;-2.667980E+1
1.261797E+0;2.992500E+3;7.446440E+0
1.167687E+0;2.982820E+3;2.400290E+1
1.080595E+0;3.013620E+3;7.785190E+0
1.000000E+0;3.013710E+3;-3.939250E+0
Freq /Hz, Zr , Zi ; Name: 50_3000
5.000000E+6;1.604990E+1;1.703830E+1
4.573848E+6;1.606870E+1;1.319590E+1
4.184017E+6;1.609840E+1;9.296590E+0
3.827411E+6;1.619280E+1;5.511980E+0
3.501199E+6;1.637150E+1;1.817790E+0
3.202791E+6;1.661440E+1;-1.815100E+0
2.929815E+6;1.692680E+1;-5.422420E+0
2.680106E+6;1.731820E+1;-9.020400E+0
2.451679E+6;1.776400E+1;-1.260550E+1
2.242722E+6;1.828600E+1;-1.623930E+1
2.051574E+6;1.889030E+1;-1.990350E+1
1.876717E+6;1.955730E+1;-2.365960E+1
1.716764E+6;2.029750E+1;-2.749750E+1
1.570443E+6;2.112110E+1;-3.147160E+1
1.436594E+6;2.202560E+1;-3.557530E+1
1.314152E+6;2.301110E+1;-3.984440E+1
1.202146E+6;2.410110E+1;-4.431250E+1
1.099687E+6;2.527420E+1;-4.897690E+1
1.005960E+6;2.654230E+1;-5.388930E+1
9.202217E+5;2.793360E+1;-5.906560E+1
8.417908E+5;2.942680E+1;-6.453490E+1
7.700446E+5;3.104100E+1;-7.033780E+1
7.044134E+5;3.280380E+1;-7.651870E+1
6.443759E+5;3.468960E+1;-8.307100E+1
5.894555E+5;3.675600E+1;-9.006870E+1
5.392159E+5;3.899430E+1;-9.756160E+1
4.932583E+5;4.142260E+1;-1.055560E+2
4.512177E+5;4.405750E+1;-1.141250E+2
4.127602E+5;4.694630E+1;-1.232930E+2
3.775805E+5;5.009270E+1;-1.331460E+2
3.453991E+5;5.354960E+1;-1.436950E+2
3.159606E+5;5.736210E+1;-1.550220E+2
2.890312E+5;6.153450E+1;-1.671770E+2
2.643969E+5;6.613110E+1;-1.801830E+2
2.418623E+5;7.123290E+1;-1.941500E+2
2.212482E+5;7.685960E+1;-2.091000E+2
2.023911E+5;8.307290E+1;-2.251150E+2
1.851413E+5;9.003910E+1;-2.422550E+2
1.693616E+5;9.773040E+1;-2.605930E+2
1.549268E+5;1.062780E+2;-2.801280E+2
1.417224E+5;1.158230E+2;-3.010280E+2
1.296433E+5;1.263490E+2;-3.232270E+2
1.185937E+5;1.380660E+2;-3.468280E+2
1.084859E+5;1.512050E+2;-3.719100E+2
9.923964E+4;1.656200E+2;-3.983100E+2
9.078140E+4;1.817040E+2;-4.264310E+2
8.304406E+4;1.997540E+2;-4.559750E+2
7.596618E+4;2.194510E+2;-4.869540E+2
6.949155E+4;2.414680E+2;-5.194810E+2
6.356876E+4;2.659060E+2;-5.535870E+2
5.815076E+4;2.925840E+2;-5.889740E+2
5.319455E+4;3.222550E+2;-6.257710E+2
4.866076E+4;3.548150E+2;-6.635470E+2
4.451338E+4;3.902590E+2;-7.023280E+2
4.071948E+4;4.293880E+2;-7.421810E+2
3.724894E+4;4.725130E+2;-7.832330E+2
3.407420E+4;5.189610E+2;-8.240820E+2
3.117004E+4;5.693410E+2;-8.650450E+2
2.851341E+4;6.237130E+2;-9.058860E+2
2.608320E+4;6.822790E+2;-9.460430E+2
2.386011E+4;7.450490E+2;-9.852020E+2
2.182651E+4;8.120340E+2;-1.022900E+3
1.996622E+4;8.829760E+2;-1.058560E+3
1.826449E+4;9.579160E+2;-1.091790E+3
1.670780E+4;1.036710E+3;-1.122310E+3
1.528379E+4;1.118690E+3;-1.149530E+3
1.398115E+4;1.204150E+3;-1.173050E+3
1.278953E+4;1.292000E+3;-1.192260E+3
1.169947E+4;1.381750E+3;-1.207070E+3
1.070232E+4;1.473040E+3;-1.217190E+3
9.790156E+3;1.565390E+3;-1.222450E+3
8.955737E+3;1.658490E+3;-1.222770E+3
8.192435E+3;1.750990E+3;-1.218000E+3
7.494190E+3;1.842770E+3;-1.208790E+3
6.855457E+3;1.932700E+3;-1.194140E+3
6.271164E+3;2.020380E+3;-1.175380E+3
5.736670E+3;2.106020E+3;-1.152230E+3
5.247731E+3;2.187910E+3;-1.125180E+3
4.800465E+3;2.267170E+3;-1.095500E+3
4.391319E+3;2.342250E+3;-1.062560E+3
4.017045E+3;2.413940E+3;-1.028230E+3
3.674670E+3;2.481200E+3;-9.897430E+2
3.361477E+3;2.543880E+3;-9.517780E+2
3.074977E+3;2.603590E+3;-9.119840E+2
2.812895E+3;2.658110E+3;-8.710480E+2
2.573151E+3;2.708620E+3;-8.304050E+2
2.353840E+3;2.755130E+3;-7.901320E+2
2.153221E+3;2.798270E+3;-7.498430E+2
1.969701E+3;2.837590E+3;-7.100910E+2
1.801823E+3;2.875080E+3;-6.709190E+2
1.648253E+3;2.907730E+3;-6.329290E+2
1.507771E+3;2.937870E+3;-5.978240E+2
1.379263E+3;2.966240E+3;-5.625030E+2
1.261708E+3;2.990720E+3;-5.273660E+2
1.154172E+3;3.012530E+3;-4.960030E+2
1.055802E+3;3.033230E+3;-4.645080E+2
9.658152E+2;3.051920E+3;-4.349890E+2
8.834983E+2;3.068780E+3;-4.064790E+2
8.081974E+2;3.083660E+3;-3.797770E+2
7.393144E+2;3.097840E+3;-3.539760E+2
6.763023E+2;3.110380E+3;-3.305600E+2
6.186608E+2;3.119590E+3;-3.104470E+2
5.659320E+2;3.131870E+3;-2.872060E+2
5.176974E+2;3.140660E+3;-2.686580E+2
4.735738E+2;3.147890E+3;-2.512720E+2
4.332109E+2;3.154980E+3;-2.326510E+2
3.962882E+2;3.161820E+3;-2.170080E+2
3.625124E+2;3.168920E+3;-2.019540E+2
3.316153E+2;3.171800E+3;-1.875010E+2
3.033516E+2;3.179560E+3;-1.697450E+2
2.774968E+2;3.179760E+3;-1.610380E+2
2.538456E+2;3.184330E+3;-1.507590E+2
2.322102E+2;3.190480E+3;-1.413540E+2
2.124189E+2;3.194090E+3;-1.301540E+2
1.943143E+2;3.193800E+3;-1.192660E+2
1.777528E+2;3.198290E+3;-1.104270E+2
1.626029E+2;3.199760E+3;-1.040900E+2
1.487442E+2;3.202430E+3;-9.500340E+1
1.360666E+2;3.203330E+3;-9.130170E+1
1.244696E+2;3.204230E+3;-8.096440E+1
1.138610E+2;3.209790E+3;-7.837370E+1
1.041566E+2;3.210250E+3;-6.843490E+1
9.527928E+1;3.212290E+3;-6.415880E+1
8.715858E+1;3.211840E+3;-6.214010E+1
7.973002E+1;3.212130E+3;-6.043910E+1
7.293459E+1;3.214770E+3;-5.136320E+1
6.671835E+1;3.220890E+3;-5.626470E+1
6.103191E+1;3.214210E+3;-4.350330E+1
5.583014E+1;3.222690E+3;-4.232180E+1
5.107171E+1;3.214880E+3;-3.896290E+1
4.671885E+1;3.222780E+3;-4.151970E+1
4.273698E+1;3.219410E+3;-2.902060E+1
3.909449E+1;3.222420E+3;-3.809450E+1
3.576245E+1;3.220900E+3;-3.515100E+1
3.271440E+1;3.232500E+3;-2.007820E+1
2.992614E+1;3.217660E+3;-2.988790E+1
2.737552E+1;3.232720E+3;-2.934640E+1
2.504229E+1;3.243430E+3;-2.640870E+1
2.290793E+1;3.231470E+3;-1.272110E+1
2.095547E+1;3.226580E+3;-9.104060E+0
1.916943E+1;3.217880E+3;-2.469690E+1
1.753561E+1;3.199980E+3;-2.424690E+1
1.604104E+1;3.234420E+3;-1.016660E+1
1.467386E+1;3.218220E+3;-1.908530E+1
1.342320E+1;3.216900E+3;-1.039920E+1
1.227913E+1;3.212560E+3;-4.589930E+1
1.123258E+1;3.225240E+3;-1.130040E+1
1.027522E+1;3.231110E+3;-1.812370E+1
9.399459E+0;3.250160E+3;-6.603390E+0
8.598339E+0;3.206620E+3;4.073540E+0
7.865499E+0;3.239180E+3;2.889630E+1
7.195119E+0;3.219880E+3;1.357480E+1
6.581876E+0;3.193540E+3;-4.272930E+1
6.020900E+0;3.251190E+3;3.927170E+0
5.507736E+0;3.272710E+3;-4.344330E+1
5.038309E+0;3.235910E+3;-1.868090E+1
4.608892E+0;3.275700E+3;-4.654240E+1
4.216074E+0;3.269840E+3;1.474730E+1
3.856736E+0;3.173890E+3;-4.283790E+0
3.528025E+0;3.240610E+3;-4.748010E+0
3.227330E+0;3.252980E+3;5.009450E+1
2.952263E+0;3.212500E+3;-2.613590E+1
2.700641E+0;3.221830E+3;6.586510E+0
2.470464E+0;3.214010E+3;-8.983150E+0
2.259905E+0;3.236970E+3;1.697610E+1
2.067292E+0;3.229520E+3;-2.484420E+1
1.891096E+0;3.230620E+3;2.025970E+0
1.729917E+0;3.265420E+3;1.826890E+1
1.582476E+0;3.226090E+3;2.039810E-1
1.447601E+0;3.197030E+3;-1.936840E+1
1.324221E+0;3.259370E+3;9.671620E+0
1.211357E+0;3.231520E+3;-1.673560E-1
1.108113E+0;3.218860E+3;-7.825950E+0
1.013668E+0;3.225240E+3;-1.381380E+1
9.272723E-1;3.215970E+3;6.766880E+0
8.482405E-1;3.231270E+3;2.206100E+1
7.759446E-1;3.225860E+3;1.456250E+1
7.098105E-1;3.240020E+3;-2.136640E+1
6.493131E-1;3.242980E+3;-2.953690E+1
5.939718E-1;3.228070E+3;1.492110E+0
5.433473E-1;3.215300E+3;-7.805560E+0
4.970375E-1;3.220460E+3;-6.638220E+0
4.546748E-1;3.253170E+3;1.274270E+1
4.159227E-1;3.228720E+3;5.136090E+0
3.804735E-1;3.215760E+3;4.983520E+0
3.480456E-1;3.221460E+3;-3.417670E+1
3.183815E-1;3.227550E+3;-2.689270E+1
2.912456E-1;3.225510E+3;7.821420E+0
2.664226E-1;3.237330E+3;2.535780E+0
2.437154E-1;3.223980E+3;1.818510E+1
2.229434E-1;3.205070E+3;4.654460E+0
2.039418E-1;3.230380E+3;4.557790E+0
1.865599E-1;3.214810E+3;-2.830130E+1
1.706592E-1;3.211110E+3;6.251820E+0
1.561138E-1;3.192880E+3;3.519290E+1
1.428082E-1;3.163930E+3;1.470500E+1
1.306366E-1;3.214410E+3;-2.105280E+0
1.195025E-1;3.261520E+3;-6.871950E+0
1.093171E-1;3.232400E+3;-3.825170E+1
1.000000E-1;3.208730E+3;1.519100E+1
Freq /Hz, Zr , Zi ; Name: 50_2000
5.000000E+6;1.378080E+1;1.152230E+1
4.573848E+6;1.407750E+1;8.171150E+0
4.184017E+6;1.445200E+1;4.670860E+0
3.827411E+6;1.486060E+1;1.241090E+0
3.501199E+6;1.627900E+1;1.656760E+0
3.202791E+6;1.654320E+1;-1.936590E+0
2.929815E+6;1.686490E+1;-5.520850E+0
2.680106E+6;1.724480E+1;-9.118960E+0
2.451679E+6;1.770550E+1;-1.269600E+1
2.242722E+6;1.822740E+1;-1.630280E+1
2.051574E+6;1.882400E+1;-1.997550E+1
1.876717E+6;1.948740E+1;-2.372510E+1
1.716764E+6;2.025710E+1;-2.755770E+1
1.570443E+6;2.107120E+1;-3.152740E+1
1.436594E+6;2.197970E+1;-3.562970E+1
1.314152E+6;2.297710E+1;-3.988700E+1
1.202146E+6;2.406090E+1;-4.434930E+1
1.099687E+6;2.523540E+1;-4.901280E+1
1.005960E+6;2.650590E+1;-5.391960E+1
9.202217E+5;2.789780E+1;-5.908840E+1
8.417908E+5;2.938150E+1;-6.456240E+1
7.700446E+5;3.099900E+1;-7.035420E+1
7.044134E+5;3.275300E+1;-7.653670E+1
6.443759E+5;3.465610E+1;-8.308970E+1
5.894555E+5;3.669830E+1;-9.008380E+1
5.392159E+5;3.892080E+1;-9.755180E+1
4.932583E+5;4.134090E+1;-1.055540E+2
4.512177E+5;4.398240E+1;-1.141080E+2
4.127602E+5;4.684420E+1;-1.232850E+2
3.775805E+5;4.999520E+1;-1.331250E+2
3.453991E+5;5.343130E+1;-1.436700E+2
3.159606E+5;5.721640E+1;-1.549700E+2
2.890312E+5;6.134510E+1;-1.671190E+2
2.643969E+5;6.595120E+1;-1.801490E+2
2.418623E+5;7.098670E+1;-1.940940E+2
2.212482E+5;7.656600E+1;-2.090480E+2
2.023911E+5;8.275790E+1;-2.250780E+2
1.851413E+5;8.960850E+1;-2.422320E+2
1.693616E+5;9.721240E+1;-2.605360E+2
1.549268E+5;1.056230E+2;-2.800950E+2
1.417224E+5;1.150830E+2;-3.009490E+2
1.296433E+5;1.254940E+2;-3.232390E+2
1.185937E+5;1.370150E+2;-3.468360E+2
1.084859E+5;1.498860E+2;-3.719790E+2
9.923964E+4;1.641790E+2;-3.985160E+2
9.078140E+4;1.800170E+2;-4.266340E+2
8.304406E+4;1.976660E+2;-4.562740E+2
7.596618E+4;2.170770E+2;-4.875680E+2
6.949155E+4;2.385960E+2;-5.203070E+2
6.356876E+4;2.625210E+2;-5.546170E+2
5.815076E+4;2.886760E+2;-5.902290E+2
5.319455E+4;3.177600E+2;-6.273440E+2
4.866076E+4;3.493950E+2;-6.657600E+2
4.451338E+4;3.844430E+2;-7.056180E+2
4.071948E+4;4.227830E+2;-7.464020E+2
3.724894E+4;4.648010E+2;-7.883400E+2
3.407420E+4;5.102020E+2;-8.305000E+2
3.117004E+4;5.594180E+2;-8.729800E+2
2.851341E+4;6.126620E+2;-9.155560E+2
2.608320E+4;6.700970E+2;-9.577470E+2
2.386011E+4;7.312450E+2;-9.984660E+2
2.182651E+4;7.970020E+2;-1.039060E+3
1.996622E+4;8.669050E+2;-1.078050E+3
1.826449E+4;9.409610E+2;-1.115170E+3
1.670780E+4;1.019010E+3;-1.149900E+3
1.528379E+4;1.100780E+3;-1.181910E+3
1.398115E+4;1.186180E+3;-1.210520E+3
1.278953E+4;1.274660E+3;-1.235710E+3
1.169947E+4;1.365810E+3;-1.256700E+3
1.070232E+4;1.459170E+3;-1.273200E+3
9.790156E+3;1.554190E+3;-1.285210E+3
8.955737E+3;1.650500E+3;-1.292470E+3
8.192435E+3;1.747400E+3;-1.294660E+3
7.494190E+3;1.844110E+3;-1.292220E+3
6.855457E+3;1.940180E+3;-1.284770E+3
6.271164E+3;2.034970E+3;-1.272610E+3
5.736670E+3;2.128300E+3;-1.255750E+3
5.247731E+3;2.218810E+3;-1.234820E+3
4.800465E+3;2.306770E+3;-1.210180E+3
4.391319E+3;2.391830E+3;-1.181280E+3
4.017045E+3;2.473250E+3;-1.150050E+3
3.674670E+3;2.551020E+3;-1.115520E+3
3.361477E+3;2.624770E+3;-1.078900E+3
3.074977E+3;2.694040E+3;-1.040530E+3
2.812895E+3;2.759800E+3;-1.000880E+3
2.573151E+3;2.821210E+3;-9.601480E+2
2.353840E+3;2.878590E+3;-9.187850E+2
2.153221E+3;2.931970E+3;-8.770710E+2
1.969701E+3;2.981620E+3;-8.352420E+2
1.801823E+3;3.027250E+3;-7.941010E+2
1.648253E+3;3.069740E+3;-7.532030E+2
1.507771E+3;3.108860E+3;-7.135020E+2
1.379263E+3;3.144050E+3;-6.745470E+2
1.261708E+3;3.176110E+3;-6.366660E+2
1.154172E+3;3.206010E+3;-5.998030E+2
1.055802E+3;3.233780E+3;-5.656610E+2
9.658152E+2;3.258450E+3;-5.313360E+2
8.834983E+2;3.280230E+3;-4.992000E+2
8.081974E+2;3.301950E+3;-4.678650E+2
7.393144E+2;3.320200E+3;-4.382600E+2
6.763023E+2;3.336270E+3;-4.111080E+2
6.186608E+2;3.352360E+3;-3.843900E+2
5.659320E+2;3.366900E+3;-3.581740E+2
5.176974E+2;3.379040E+3;-3.356470E+2
4.735738E+2;3.390220E+3;-3.124570E+2
4.332109E+2;3.399250E+3;-2.922590E+2
3.962882E+2;3.410050E+3;-2.716060E+2
3.625124E+2;3.419500E+3;-2.531070E+2
3.316153E+2;3.426030E+3;-2.352900E+2
3.033516E+2;3.432800E+3;-2.193200E+2
2.774968E+2;3.439100E+3;-2.056160E+2
2.538456E+2;3.445150E+3;-1.907230E+2
2.322102E+2;3.449770E+3;-1.770140E+2
2.124189E+2;3.454310E+3;-1.651390E+2
1.943143E+2;3.459260E+3;-1.531780E+2
1.777528E+2;3.463600E+3;-1.422960E+2
1.626029E+2;3.467210E+3;-1.334290E+2
1.487442E+2;3.468300E+3;-1.220320E+2
1.360666E+2;3.471810E+3;-1.147980E+2
1.244696E+2;3.474070E+3;-1.065360E+2
1.138610E+2;3.478480E+3;-9.958590E+1
1.041566E+2;3.478760E+3;-9.121760E+1
9.527928E+1;3.483050E+3;-8.533120E+1
8.715858E+1;3.482240E+3;-8.118180E+1
7.973002E+1;3.485940E+3;-7.585310E+1
7.293459E+1;3.486520E+3;-6.952670E+1
6.671835E+1;3.488360E+3;-6.857490E+1
6.103191E+1;3.487530E+3;-6.065450E+1
5.583014E+1;3.491130E+3;-5.401090E+1
5.107171E+1;3.488010E+3;-5.128150E+1
4.671885E+1;3.496150E+3;-4.437060E+1
4.273698E+1;3.489880E+3;-4.664170E+1
3.909449E+1;3.500770E+3;-4.207000E+1
3.576245E+1;3.496250E+3;-4.168180E+1
3.271440E+1;3.504180E+3;-3.985280E+1
2.992614E+1;3.493170E+3;-3.166630E+1
2.737552E+1;3.493040E+3;-3.640090E+1
2.504229E+1;3.497150E+3;-4.112770E+1
2.290793E+1;3.502950E+3;-2.946380E+1
2.095547E+1;3.507720E+3;-2.909640E+1
1.916943E+1;3.499370E+3;-1.664010E+1
1.753561E+1;3.508660E+3;-2.846880E+0
1.604104E+1;3.504820E+3;-2.607910E+1
1.467386E+1;3.499960E+3;-1.696940E+1
1.342320E+1;3.505740E+3;-1.099980E+1
1.227913E+1;3.477770E+3;-4.154480E+0
1.123258E+1;3.503240E+3;-2.047090E+1
1.027522E+1;3.507860E+3;-1.026900E+1
9.399459E+0;3.511680E+3;-1.333220E+0
8.598339E+0;3.497250E+3;-2.536150E+1
7.865499E+0;3.478800E+3;4.731920E+0
7.195119E+0;3.488940E+3;-1.246650E+1
6.581876E+0;3.527920E+3;-4.740720E+1
6.020900E+0;3.491870E+3;4.639920E+0
5.507736E+0;3.533270E+3;1.720300E+1
5.038309E+0;3.515260E+3;2.003410E+0
4.608892E+0;3.536910E+3;3.455930E+1
4.216074E+0;3.482990E+3;2.851390E+1
3.856736E+0;3.492450E+3;-3.651250E+1
3.528025E+0;3.515110E+3;-9.572120E+0
3.227330E+0;3.548260E+3;2.257050E+1
2.952263E+0;3.484270E+3;-7.584690E+0
2.700641E+0;3.516840E+3;-4.110440E+0
2.470464E+0;3.501610E+3;-2.177140E+0
2.259905E+0;3.522200E+3;-7.354850E+0
2.067292E+0;3.498840E+3;-1.984180E+1
1.891096E+0;3.509730E+3;-3.001460E+0
1.729917E+0;3.527160E+3;-2.052660E+1
1.582476E+0;3.497760E+3;-7.795620E-1
1.447601E+0;3.504820E+3;1.709140E+1
1.324221E+0;3.526820E+3;-2.282940E+0
1.211357E+0;3.507630E+3;-5.244130E+0
1.108113E+0;3.504860E+3;-7.808400E+0
1.013668E+0;3.503130E+3;-4.108850E+0
9.272723E-1;3.502780E+3;3.724920E+0
8.482405E-1;3.523750E+3;-8.044930E+0
7.759446E-1;3.499560E+3;-7.946850E+0
7.098105E-1;3.507280E+3;-1.109040E+0
6.493131E-1;3.497650E+3;1.173350E+0
5.939718E-1;3.492000E+3;-7.889850E+0
5.433473E-1;3.501060E+3;-2.611440E+0
4.970375E-1;3.510930E+3;1.219540E+1
4.546748E-1;3.503580E+3;2.910640E+0
4.159227E-1;3.517100E+3;-6.177780E+0
3.804735E-1;3.502810E+3;1.984570E+1
3.480456E-1;3.498060E+3;-2.346770E+0
3.183815E-1;3.497720E+3;-7.957540E+0
2.912456E-1;3.499010E+3;-1.475300E+1
2.664226E-1;3.499440E+3;4.653510E+0
2.437154E-1;3.494080E+3;1.445000E+0
2.229434E-1;3.524510E+3;-7.382850E+0
2.039418E-1;3.516100E+3;-1.832210E+1
1.865599E-1;3.513630E+3;1.537830E+1
1.706592E-1;3.517360E+3;1.725870E-2
1.561138E-1;3.503240E+3;7.664120E+0
1.428082E-1;3.517800E+3;-2.234490E+1
1.306366E-1;3.500880E+3;1.254310E+0
1.195025E-1;3.489840E+3;-2.909880E+1
1.093171E-1;3.497480E+3;3.458760E+1
1.000000E-1;3.492920E+3;1.680390E+1
Freq /Hz, Zr , Zi ; Name: 50_1000
5.000000E+6;1.372980E+1;1.176220E+1
4.573848E+6;1.425030E+1;7.983360E+0
4.184017E+6;1.462450E+1;4.494250E+0
3.827411E+6;1.502140E+1;1.077650E+0
3.501199E+6;1.543850E+1;-2.253590E+0
3.202791E+6;1.589650E+1;-5.563420E+0
2.929815E+6;1.639870E+1;-8.871120E+0
2.680106E+6;1.692890E+1;-1.219740E+1
2.451679E+6;1.751430E+1;-1.551530E+1
2.242722E+6;1.814790E+1;-1.891270E+1
2.051574E+6;1.884940E+1;-2.237670E+1
1.876717E+6;1.959320E+1;-2.594150E+1
1.716764E+6;2.041140E+1;-2.960660E+1
1.570443E+6;2.129300E+1;-3.340670E+1
1.436594E+6;2.224840E+1;-3.736070E+1
1.314152E+6;2.328170E+1;-4.148610E+1
1.202146E+6;2.440500E+1;-4.582550E+1
1.099687E+6;2.560750E+1;-5.037100E+1
1.005960E+6;2.690360E+1;-5.518020E+1
9.202217E+5;2.830580E+1;-6.024830E+1
8.417908E+5;2.983640E+1;-6.563490E+1
7.700446E+5;3.145940E+1;-7.134920E+1
7.044134E+5;3.321290E+1;-7.743930E+1
6.443759E+5;3.512680E+1;-8.393330E+1
5.894555E+5;3.717340E+1;-9.087800E+1
5.392159E+5;3.941800E+1;-9.829690E+1
4.932583E+5;4.183400E+1;-1.062290E+2
4.512177E+5;4.447470E+1;-1.147400E+2
4.127602E+5;4.735960E+1;-1.238700E+2
3.775805E+5;5.048480E+1;-1.336590E+2
3.453991E+5;5.393430E+1;-1.441750E+2
3.159606E+5;5.770000E+1;-1.554650E+2
2.890312E+5;6.184460E+1;-1.675590E+2
2.643969E+5;6.639490E+1;-1.805380E+2
2.418623E+5;7.142360E+1;-1.944690E+2
2.212482E+5;7.698430E+1;-2.094310E+2
2.023911E+5;8.314050E+1;-2.254070E+2
1.851413E+5;8.993180E+1;-2.425090E+2
1.693616E+5;9.750340E+1;-2.607970E+2
1.549268E+5;1.058820E+2;-2.803570E+2
1.417224E+5;1.151830E+2;-3.012260E+2
1.296433E+5;1.255020E+2;-3.234510E+2
1.185937E+5;1.370150E+2;-3.471020E+2
1.084859E+5;1.497140E+2;-3.721530E+2
9.923964E+4;1.638160E+2;-3.987650E+2
9.078140E+4;1.794620E+2;-4.268870E+2
8.304406E+4;1.968130E+2;-4.565870E+2
7.596618E+4;2.159600E+2;-4.878700E+2
6.949155E+4;2.371680E+2;-5.206590E+2
6.356876E+4;2.606720E+2;-5.550360E+2
5.815076E+4;2.864770E+2;-5.909880E+2
5.319455E+4;3.147910E+2;-6.282350E+2
4.866076E+4;3.459290E+2;-6.671410E+2
4.451338E+4;3.802840E+2;-7.071120E+2
4.071948E+4;4.175080E+2;-7.482870E+2
3.724894E+4;4.586520E+2;-7.908810E+2
3.407420E+4;5.029600E+2;-8.337790E+2
3.117004E+4;5.510400E+2;-8.773520E+2
2.851341E+4;6.029740E+2;-9.212070E+2
2.608320E+4;6.589570E+2;-9.650040E+2
2.386011E+4;7.190760E+2;-1.008600E+3
2.182651E+4;7.833580E+2;-1.051480E+3
1.996622E+4;8.518040E+2;-1.093340E+3
1.826449E+4;9.244070E+2;-1.133690E+3
1.670780E+4;1.001120E+3;-1.172340E+3
1.528379E+4;1.081780E+3;-1.208590E+3
1.398115E+4;1.166170E+3;-1.242250E+3
1.278953E+4;1.254040E+3;-1.272940E+3
1.169947E+4;1.344920E+3;-1.300020E+3
1.070232E+4;1.438810E+3;-1.323560E+3
9.790156E+3;1.534960E+3;-1.342830E+3
8.955737E+3;1.632820E+3;-1.357950E+3
8.192435E+3;1.732280E+3;-1.368550E+3
7.494190E+3;1.832880E+3;-1.374550E+3
6.855457E+3;1.933400E+3;-1.375950E+3
6.271164E+3;2.033570E+3;-1.372730E+3
5.736670E+3;2.133460E+3;-1.364720E+3
5.247731E+3;2.231770E+3;-1.352330E+3
4.800465E+3;2.328230E+3;-1.335580E+3
4.391319E+3;2.422870E+3;-1.314920E+3
4.017045E+3;2.514980E+3;-1.290880E+3
3.674670E+3;2.603870E+3;-1.263380E+3
3.361477E+3;2.689770E+3;-1.232990E+3
3.074977E+3;2.772420E+3;-1.199320E+3
2.812895E+3;2.850920E+3;-1.163670E+3
2.573151E+3;2.925950E+3;-1.126100E+3
2.353840E+3;2.997010E+3;-1.087350E+3
2.153221E+3;3.064110E+3;-1.047150E+3
1.969701E+3;3.127550E+3;-1.006440E+3
1.801823E+3;3.186900E+3;-9.644640E+2
1.648253E+3;3.243360E+3;-9.229650E+2
1.507771E+3;3.294760E+3;-8.813700E+2
1.379263E+3;3.342920E+3;-8.397930E+2
1.261708E+3;3.388400E+3;-7.989090E+2
1.154172E+3;3.429330E+3;-7.587430E+2
1.055802E+3;3.467640E+3;-7.197910E+2
9.658152E+2;3.503770E+3;-6.812980E+2
8.834983E+2;3.536050E+3;-6.438290E+2
8.081974E+2;3.565910E+3;-6.078170E+2
7.393144E+2;3.593760E+3;-5.733790E+2
6.763023E+2;3.619400E+3;-5.402220E+2
6.186608E+2;3.642130E+3;-5.081820E+2
5.659320E+2;3.663280E+3;-4.770990E+2
5.176974E+2;3.682270E+3;-4.483840E+2
4.735738E+2;3.700400E+3;-4.208510E+2
4.332109E+2;3.716320E+3;-3.935050E+2
3.962882E+2;3.730960E+3;-3.684310E+2
3.625124E+2;3.743960E+3;-3.447510E+2
3.316153E+2;3.756460E+3;-3.229660E+2
3.033516E+2;3.767230E+3;-3.019060E+2
2.774968E+2;3.777160E+3;-2.814070E+2
2.538456E+2;3.785930E+3;-2.627930E+2
2.322102E+2;3.793870E+3;-2.453450E+2
2.124189E+2;3.801790E+3;-2.285400E+2
1.943143E+2;3.808830E+3;-2.139220E+2
1.777528E+2;3.815100E+3;-1.986990E+2
1.626029E+2;3.819860E+3;-1.845140E+2
1.487442E+2;3.826340E+3;-1.730500E+2
1.360666E+2;3.829260E+3;-1.608770E+2
1.244696E+2;3.835300E+3;-1.503630E+2
1.138610E+2;3.838320E+3;-1.396240E+2
1.041566E+2;3.840960E+3;-1.278560E+2
9.527928E+1;3.844490E+3;-1.218560E+2
8.715858E+1;3.846880E+3;-1.140300E+2
7.973002E+1;3.851090E+3;-1.047080E+2
7.293459E+1;3.853280E+3;-9.681920E+1
6.671835E+1;3.857590E+3;-9.185280E+1
6.103191E+1;3.857530E+3;-8.612770E+1
5.583014E+1;3.857270E+3;-7.534950E+1
5.107171E+1;3.862550E+3;-7.385300E+1
4.671885E+1;3.863730E+3;-6.486910E+1
4.273698E+1;3.864690E+3;-6.520650E+1
3.909449E+1;3.865770E+3;-5.506940E+1
3.576245E+1;3.867020E+3;-5.530500E+1
3.271440E+1;3.869140E+3;-5.196330E+1
2.992614E+1;3.868510E+3;-4.241570E+1
2.737552E+1;3.863350E+3;-4.401790E+1
2.504229E+1;3.862410E+3;-3.935460E+1
2.290793E+1;3.867130E+3;-4.074600E+1
2.095547E+1;3.867310E+3;-3.877660E+1
1.916943E+1;3.873770E+3;-3.333590E+1
1.753561E+1;3.882680E+3;-3.216290E+1
1.604104E+1;3.869280E+3;-3.053890E+1
1.467386E+1;3.874040E+3;-2.384130E+1
1.342320E+1;3.874480E+3;-2.663510E+1
1.227913E+1;3.879280E+3;-9.419940E+0
1.123258E+1;3.873590E+3;-1.480140E+1
1.027522E+1;3.873220E+3;-2.063500E+1
9.399459E+0;3.867740E+3;-2.668970E+1
8.598339E+0;3.876810E+3;-1.110590E+1
7.865499E+0;3.890140E+3;-1.910750E+1
7.195119E+0;3.888760E+3;-6.608010E+0
6.581876E+0;3.858910E+3;5.164270E+0
6.020900E+0;3.888180E+3;-1.732100E+1
5.507736E+0;3.869380E+3;-2.972090E+1
5.038309E+0;3.874130E+3;-1.634300E+1
4.608892E+0;3.870730E+3;-4.181690E+1
4.216074E+0;3.896160E+3;-2.558780E+1
3.856736E+0;3.883160E+3;1.491420E+1
3.528025E+0;3.874150E+3;-8.347320E+0
3.227330E+0;3.866770E+3;-2.586350E+1
2.952263E+0;3.894730E+3;-5.230850E+0
2.700641E+0;3.879810E+3;-9.382320E+0
2.470464E+0;3.887720E+3;-3.910740E+0
2.259905E+0;3.874860E+3;-1.169500E+1
2.067292E+0;3.880100E+3;1.823960E+0
1.891096E+0;3.875400E+3;-5.015300E+0
1.729917E+0;3.859990E+3;-3.482750E-1
1.582476E+0;3.878910E+3;3.448600E+0
1.447601E+0;3.893050E+3;-1.500800E+1
1.324221E+0;3.874490E+3;-7.982240E+0
1.211357E+0;3.880810E+3;4.176700E+0
1.108113E+0;3.878800E+3;-2.212350E+0
1.013668E+0;3.887610E+3;-4.742880E+0
9.272723E-1;3.884600E+3;-4.849250E+0
8.482405E-1;3.878920E+3;-1.208410E+1
7.759446E-1;3.885890E+3;-2.299790E+0
7.098105E-1;3.885550E+3;-1.444290E+0
6.493131E-1;3.885150E+3;-4.590580E+0
5.939718E-1;3.890390E+3;-1.181180E+1
5.433473E-1;3.889780E+3;-2.103100E+0
4.970375E-1;3.887440E+3;-1.797730E+0
4.546748E-1;3.888410E+3;-7.110270E+0
4.159227E-1;3.885220E+3;-1.648610E-1
3.804735E-1;3.884680E+3;-3.186360E+0
3.480456E-1;3.886470E+3;-2.069740E+0
3.183815E-1;3.890260E+3;1.428420E+1
2.912456E-1;3.890070E+3;1.580300E+1
2.664226E-1;3.870590E+3;-1.226500E+1
2.437154E-1;3.884930E+3;3.684650E+0
2.229434E-1;3.875960E+3;4.370450E+0
2.039418E-1;3.890860E+3;3.439120E+0
1.865599E-1;3.889590E+3;1.177480E+1
1.706592E-1;3.878640E+3;-1.045550E+1
1.561138E-1;3.881310E+3;-7.091120E+0
1.428082E-1;3.871680E+3;1.524210E+1
1.306366E-1;3.884120E+3;-8.395840E+0
1.195025E-1;3.876720E+3;5.516350E-1
1.093171E-1;3.890180E+3;1.405850E+1
1.000000E-1;3.876290E+3;1.888080E+1
Freq /Hz, Zr , Zi ; Name: 50_800
5.000000E+6;6.927890E+0;-2.067510E+1
4.573848E+6;7.678080E+0;-2.158450E+1
4.184017E+6;8.377000E+0;-2.265860E+1
3.827411E+6;9.058780E+0;-2.386610E+1
3.501199E+6;9.738870E+0;-2.519370E+1
3.202791E+6;1.041410E+1;-2.667100E+1
2.929815E+6;1.112240E+1;-2.828830E+1
2.680106E+6;1.184210E+1;-3.009750E+1
2.451679E+6;1.260380E+1;-3.201310E+1
2.242722E+6;1.339500E+1;-3.412780E+1
2.051574E+6;1.423320E+1;-3.641990E+1
1.876717E+6;1.512770E+1;-3.890440E+1
1.716764E+6;1.606770E+1;-4.158890E+1
1.570443E+6;1.707090E+1;-4.449020E+1
1.436594E+6;1.814110E+1;-4.762020E+1
1.314152E+6;1.928890E+1;-5.099620E+1
1.202146E+6;2.050550E+1;-5.462900E+1
1.099687E+6;2.180940E+1;-5.855180E+1
1.005960E+6;2.321110E+1;-6.277560E+1
9.202217E+5;2.470130E+1;-6.731600E+1
8.417908E+5;2.629930E+1;-7.221300E+1
7.700446E+5;2.802130E+1;-7.748850E+1
7.044134E+5;2.987110E+1;-8.316610E+1
6.443759E+5;3.185190E+1;-8.930320E+1
5.894555E+5;3.398390E+1;-9.589340E+1
5.392159E+5;3.629160E+1;-1.030120E+2
4.932583E+5;3.879300E+1;-1.106710E+2
4.512177E+5;4.149370E+1;-1.189260E+2
4.127602E+5;4.444640E+1;-1.278250E+2
3.775805E+5;4.764700E+1;-1.374090E+2
3.453991E+5;5.115470E+1;-1.477350E+2
3.159606E+5;5.500380E+1;-1.588480E+2
2.890312E+5;5.920080E+1;-1.708010E+2
2.643969E+5;6.383830E+1;-1.836620E+2
2.418623E+5;6.893740E+1;-1.974920E+2
2.212482E+5;7.457790E+1;-2.123170E+2
2.023911E+5;8.078330E+1;-2.282520E+2
1.851413E+5;8.768540E+1;-2.452630E+2
1.693616E+5;9.532800E+1;-2.635280E+2
1.549268E+5;1.037690E+2;-2.830280E+2
1.417224E+5;1.131400E+2;-3.038200E+2
1.296433E+5;1.235640E+2;-3.260360E+2
1.185937E+5;1.350950E+2;-3.496200E+2
1.084859E+5;1.479150E+2;-3.746880E+2
9.923964E+4;1.621340E+2;-4.012580E+2
9.078140E+4;1.778430E+2;-4.294090E+2
8.304406E+4;1.952870E+2;-4.590940E+2
7.596618E+4;2.145650E+2;-4.903920E+2
6.949155E+4;2.358110E+2;-5.231950E+2
6.356876E+4;2.593200E+2;-5.575180E+2
5.815076E+4;2.852210E+2;-5.935630E+2
5.319455E+4;3.136420E+2;-6.309000E+2
4.866076E+4;3.449410E+2;-6.696580E+2
4.451338E+4;3.791780E+2;-7.096940E+2
4.071948E+4;4.165200E+2;-7.509210E+2
3.724894E+4;4.576730E+2;-7.935840E+2
3.407420E+4;5.020160E+2;-8.366170E+2
3.117004E+4;5.500580E+2;-8.802420E+2
2.851341E+4;6.020390E+2;-9.242380E+2
2.608320E+4;6.579460E+2;-9.681990E+2
2.386011E+4;7.179070E+2;-1.011950E+3
2.182651E+4;7.821270E+2;-1.055110E+3
1.996622E+4;8.504380E+2;-1.097200E+3
1.826449E+4;9.228450E+2;-1.137920E+3
1.670780E+4;9.993340E+2;-1.176930E+3
1.528379E+4;1.079760E+3;-1.213850E+3
1.398115E+4;1.163970E+3;-1.248030E+3
1.278953E+4;1.251620E+3;-1.279540E+3
1.169947E+4;1.342420E+3;-1.307560E+3
1.070232E+4;1.436110E+3;-1.331860E+3
9.790156E+3;1.532120E+3;-1.352480E+3
8.955737E+3;1.630270E+3;-1.368800E+3
8.192435E+3;1.729780E+3;-1.380850E+3
7.494190E+3;1.830350E+3;-1.388380E+3
6.855457E+3;1.931430E+3;-1.391590E+3
6.271164E+3;2.032420E+3;-1.389940E+3
5.736670E+3;2.132830E+3;-1.383830E+3
5.247731E+3;2.232150E+3;-1.373440E+3
4.800465E+3;2.330220E+3;-1.358750E+3
4.391319E+3;2.426340E+3;-1.340080E+3
4.017045E+3;2.519950E+3;-1.318110E+3
3.674670E+3;2.610940E+3;-1.292300E+3
3.361477E+3;2.698800E+3;-1.263150E+3
3.074977E+3;2.783410E+3;-1.231720E+3
2.812895E+3;2.865100E+3;-1.197680E+3
2.573151E+3;2.942690E+3;-1.161750E+3
2.353840E+3;3.016660E+3;-1.124090E+3
2.153221E+3;3.086940E+3;-1.085050E+3
1.969701E+3;3.153210E+3;-1.044770E+3
1.801823E+3;3.215950E+3;-1.004090E+3
1.648253E+3;3.274620E+3;-9.623900E+2
1.507771E+3;3.330050E+3;-9.207010E+2
1.379263E+3;3.381450E+3;-8.798450E+2
1.261708E+3;3.429210E+3;-8.384410E+2
1.154172E+3;3.474480E+3;-7.980820E+2
1.055802E+3;3.515220E+3;-7.585070E+2
9.658152E+2;3.554090E+3;-7.194330E+2
8.834983E+2;3.588840E+3;-6.817000E+2
8.081974E+2;3.621580E+3;-6.447870E+2
7.393144E+2;3.651920E+3;-6.085880E+2
6.763023E+2;3.680220E+3;-5.744230E+2
6.186608E+2;3.705040E+3;-5.412250E+2
5.659320E+2;3.728570E+3;-5.100830E+2
5.176974E+2;3.749460E+3;-4.791720E+2
4.735738E+2;3.768790E+3;-4.503050E+2
4.332109E+2;3.786630E+3;-4.223570E+2
3.962882E+2;3.802580E+3;-3.970350E+2
3.625124E+2;3.817950E+3;-3.706730E+2
3.316153E+2;3.830740E+3;-3.469690E+2
3.033516E+2;3.843320E+3;-3.252590E+2
2.774968E+2;3.853980E+3;-3.035940E+2
2.538456E+2;3.865050E+3;-2.843860E+2
2.322102E+2;3.874510E+3;-2.654250E+2
2.124189E+2;3.881780E+3;-2.479180E+2
1.943143E+2;3.889870E+3;-2.308000E+2
1.777528E+2;3.897800E+3;-2.160820E+2
1.626029E+2;3.904070E+3;-2.021630E+2
1.487442E+2;3.910170E+3;-1.869900E+2
1.360666E+2;3.914590E+3;-1.745330E+2
1.244696E+2;3.918670E+3;-1.613690E+2
1.138610E+2;3.924470E+3;-1.507410E+2
1.041566E+2;3.928170E+3;-1.401880E+2
9.527928E+1;3.929890E+3;-1.318530E+2
8.715858E+1;3.933720E+3;-1.197910E+2
7.973002E+1;3.936070E+3;-1.137630E+2
7.293459E+1;3.939960E+3;-1.066260E+2
6.671835E+1;3.943320E+3;-9.939900E+1
6.103191E+1;3.945940E+3;-9.103940E+1
5.583014E+1;3.947870E+3;-8.477030E+1
5.107171E+1;3.948040E+3;-7.738350E+1
4.671885E+1;3.950190E+3;-7.109270E+1
4.273698E+1;3.952700E+3;-6.581960E+1
3.909449E+1;3.953950E+3;-6.504440E+1
3.576245E+1;3.954090E+3;-5.702770E+1
3.271440E+1;3.953730E+3;-5.804020E+1
2.992614E+1;3.960080E+3;-4.787450E+1
2.737552E+1;3.957090E+3;-4.871700E+1
2.504229E+1;3.958860E+3;-4.983410E+1
2.290793E+1;3.963950E+3;-3.958470E+1
2.095547E+1;3.966440E+3;-3.584470E+1
1.916943E+1;3.959530E+3;-3.375540E+1
1.753561E+1;3.959760E+3;-2.661750E+1
1.604104E+1;3.966640E+3;-2.883030E+1
1.467386E+1;3.964930E+3;-2.811720E+1
1.342320E+1;3.964070E+3;-2.361350E+1
1.227913E+1;3.951300E+3;-3.212670E+1
1.123258E+1;3.967530E+3;-2.688930E+1
1.027522E+1;3.967060E+3;-2.330500E+1
9.399459E+0;3.971060E+3;-1.505110E+1
8.598339E+0;3.965180E+3;-2.395170E+1
7.865499E+0;3.959640E+3;-1.774750E+1
7.195119E+0;3.962290E+3;-2.198340E+1
6.581876E+0;3.980480E+3;-2.909510E+1
6.020900E+0;3.958740E+3;-9.957500E+0
5.507736E+0;3.979260E+3;9.390470E+0
5.038309E+0;3.971760E+3;-1.023340E+1
4.608892E+0;3.980640E+3;1.494760E+1
4.216074E+0;3.956250E+3;-1.444050E+0
3.856736E+0;3.976630E+3;-2.848140E+1
3.528025E+0;3.974690E+3;-5.119110E+0
3.227330E+0;3.948400E+3;-8.650590E+0
2.952263E+0;3.981130E+3;-1.576160E+1
2.700641E+0;3.965830E+3;-6.015330E+0
2.470464E+0;3.976020E+3;-8.087700E+0
2.259905E+0;3.963810E+3;-5.342270E+0
2.067292E+0;3.986680E+3;-2.333090E+0
1.891096E+0;3.970180E+3;-4.562910E+0
1.729917E+0;3.965820E+3;2.892740E+0
1.582476E+0;3.975680E+3;-3.708950E-1
1.447601E+0;3.974100E+3;-1.521300E+1
1.324221E+0;3.965680E+3;-5.339140E+0
1.211357E+0;3.977220E+3;-1.842770E+0
1.108113E+0;3.976820E+3;2.372270E+0
1.013668E+0;3.974890E+3;1.485070E-1
9.272723E-1;3.977310E+3;-9.727450E+0
8.482405E-1;3.967630E+3;5.077700E+0
7.759446E-1;3.970780E+3;-3.589190E+0
7.098105E-1;3.981890E+3;4.018360E+0
6.493131E-1;3.969480E+3;-4.866910E+0
5.939718E-1;3.983330E+3;2.743910E-1
5.433473E-1;3.974500E+3;-3.663970E+0
4.970375E-1;3.974910E+3;-5.774840E+0
4.546748E-1;3.975320E+3;-5.126630E+0
4.159227E-1;3.975160E+3;-2.583390E+0
3.804735E-1;3.976760E+3;2.469570E+0
3.480456E-1;3.984100E+3;1.684000E+0
3.183815E-1;3.968710E+3;-3.109710E+0
2.912456E-1;3.981010E+3;-2.850610E+0
2.664226E-1;3.982630E+3;-7.301440E-2
2.437154E-1;3.972310E+3;1.268520E+1
2.229434E-1;3.983470E+3;5.804870E+0
2.039418E-1;3.980380E+3;2.150820E+0
1.865599E-1;3.985580E+3;-1.707340E+1
1.706592E-1;3.975900E+3;4.447350E+0
1.561138E-1;3.974060E+3;-1.150100E+1
1.428082E-1;3.975540E+3;2.380110E+1
1.306366E-1;3.972530E+3;5.309000E+0
1.195025E-1;3.974530E+3;-1.062360E+1
1.093171E-1;3.987770E+3;8.251060E-1
1.000000E-1;3.971330E+3;-1.701400E+1
Freq /Hz, Zr , Zi ; Name: 50_600
5.000000E+6;6.922940E+0;-2.067400E+1
4.573848E+6;7.657960E+0;-2.161170E+1
4.184017E+6;8.366290E+0;-2.267720E+1
3.827411E+6;9.038870E+0;-2.388540E+1
3.501199E+6;9.722170E+0;-2.521000E+1
3.202791E+6;1.040460E+1;-2.668940E+1
2.929815E+6;1.111240E+1;-2.831320E+1
2.680106E+6;1.183470E+1;-3.010970E+1
2.451679E+6;1.259230E+1;-3.203300E+1
2.242722E+6;1.339120E+1;-3.414420E+1
2.051574E+6;1.423240E+1;-3.643500E+1
1.876717E+6;1.511300E+1;-3.892000E+1
1.716764E+6;1.606120E+1;-4.160280E+1
1.570443E+6;1.706330E+1;-4.450390E+1
1.436594E+6;1.813660E+1;-4.763710E+1
1.314152E+6;1.928240E+1;-5.101200E+1
1.202146E+6;2.050070E+1;-5.464280E+1
1.099687E+6;2.180890E+1;-5.856880E+1
1.005960E+6;2.320290E+1;-6.278310E+1
9.202217E+5;2.469520E+1;-6.733210E+1
8.417908E+5;2.630270E+1;-7.222920E+1
7.700446E+5;2.802290E+1;-7.750030E+1
7.044134E+5;2.987090E+1;-8.318530E+1
6.443759E+5;3.185060E+1;-8.931200E+1
5.894555E+5;3.398510E+1;-9.590450E+1
5.392159E+5;3.629310E+1;-1.030240E+2
4.932583E+5;3.879750E+1;-1.106880E+2
4.512177E+5;4.150160E+1;-1.189510E+2
4.127602E+5;4.445020E+1;-1.278440E+2
3.775805E+5;4.766060E+1;-1.374360E+2
3.453991E+5;5.115930E+1;-1.477500E+2
3.159606E+5;5.500690E+1;-1.588750E+2
2.890312E+5;5.920810E+1;-1.708270E+2
2.643969E+5;6.383340E+1;-1.836860E+2
2.418623E+5;6.892630E+1;-1.974850E+2
2.212482E+5;7.456470E+1;-2.123300E+2
2.023911E+5;8.077320E+1;-2.282400E+2
1.851413E+5;8.766760E+1;-2.452860E+2
1.693616E+5;9.529240E+1;-2.635240E+2
1.549268E+5;1.037370E+2;-2.830380E+2
1.417224E+5;1.130970E+2;-3.038450E+2
1.296433E+5;1.235130E+2;-3.260390E+2
1.185937E+5;1.350350E+2;-3.496280E+2
1.084859E+5;1.478120E+2;-3.746690E+2
9.923964E+4;1.619910E+2;-4.012670E+2
9.078140E+4;1.776980E+2;-4.293610E+2
8.304406E+4;1.951240E+2;-4.590930E+2
7.596618E+4;2.143330E+2;-4.903470E+2
6.949155E+4;2.355810E+2;-5.231660E+2
6.356876E+4;2.590280E+2;-5.575780E+2
5.815076E+4;2.848240E+2;-5.934760E+2
5.319455E+4;3.132710E+2;-6.309390E+2
4.866076E+4;3.443660E+2;-6.696770E+2
4.451338E+4;3.785040E+2;-7.098010E+2
4.071948E+4;4.156060E+2;-7.510090E+2
3.724894E+4;4.566610E+2;-7.937560E+2
3.407420E+4;5.007810E+2;-8.368690E+2
3.117004E+4;5.485910E+2;-8.805900E+2
2.851341E+4;6.002510E+2;-9.246990E+2
2.608320E+4;6.558470E+2;-9.688490E+2
2.386011E+4;7.155540E+2;-1.012820E+3
2.182651E+4;7.793340E+2;-1.056260E+3
1.996622E+4;8.471640E+2;-1.098740E+3
1.826449E+4;9.192730E+2;-1.139990E+3
1.670780E+4;9.952570E+2;-1.179680E+3
1.528379E+4;1.075310E+3;-1.217300E+3
1.398115E+4;1.159080E+3;-1.252500E+3
1.278953E+4;1.246360E+3;-1.284860E+3
1.169947E+4;1.336780E+3;-1.314070E+3
1.070232E+4;1.430110E+3;-1.339840E+3
9.790156E+3;1.526040E+3;-1.361820E+3
8.955737E+3;1.624030E+3;-1.380020E+3
8.192435E+3;1.723690E+3;-1.393840E+3
7.494190E+3;1.824420E+3;-1.403330E+3
6.855457E+3;1.925970E+3;-1.408490E+3
6.271164E+3;2.027570E+3;-1.409070E+3
5.736670E+3;2.129080E+3;-1.405580E+3
5.247731E+3;2.229550E+3;-1.397190E+3
4.800465E+3;2.328910E+3;-1.385030E+3
4.391319E+3;2.426560E+3;-1.369080E+3
4.017045E+3;2.522210E+3;-1.349030E+3
3.674670E+3;2.615520E+3;-1.325560E+3
3.361477E+3;2.705860E+3;-1.298650E+3
3.074977E+3;2.793220E+3;-1.269390E+3
2.812895E+3;2.877560E+3;-1.237380E+3
2.573151E+3;2.958310E+3;-1.202980E+3
2.353840E+3;3.035290E+3;-1.166640E+3
2.153221E+3;3.109170E+3;-1.128900E+3
1.969701E+3;3.179200E+3;-1.090030E+3
1.801823E+3;3.245050E+3;-1.050200E+3
1.648253E+3;3.307740E+3;-1.008990E+3
1.507771E+3;3.366220E+3;-9.682360E+2
1.379263E+3;3.421420E+3;-9.271830E+2
1.261708E+3;3.472740E+3;-8.857590E+2
1.154172E+3;3.521200E+3;-8.448720E+2
1.055802E+3;3.565820E+3;-8.048120E+2
9.658152E+2;3.607890E+3;-7.660680E+2
8.834983E+2;3.647040E+3;-7.262500E+2
8.081974E+2;3.682160E+3;-6.882030E+2
7.393144E+2;3.715980E+3;-6.521010E+2
6.763023E+2;3.746900E+3;-6.174840E+2
6.186608E+2;3.774280E+3;-5.819260E+2
5.659320E+2;3.800460E+3;-5.493440E+2
5.176974E+2;3.825350E+3;-5.168190E+2
4.735738E+2;3.847100E+3;-4.867000E+2
4.332109E+2;3.866220E+3;-4.580190E+2
3.962882E+2;3.884990E+3;-4.300480E+2
3.625124E+2;3.901240E+3;-4.032360E+2
3.316153E+2;3.916470E+3;-3.789100E+2
3.033516E+2;3.930730E+3;-3.545000E+2
2.774968E+2;3.943650E+3;-3.322520E+2
2.538456E+2;3.955120E+3;-3.113030E+2
2.322102E+2;3.966550E+3;-2.899670E+2
2.124189E+2;3.976450E+3;-2.718370E+2
1.943143E+2;3.985670E+3;-2.529030E+2
1.777528E+2;3.993710E+3;-2.369070E+2
1.626029E+2;4.000190E+3;-2.202120E+2
1.487442E+2;4.007970E+3;-2.057350E+2
1.360666E+2;4.012920E+3;-1.905880E+2
1.244696E+2;4.018300E+3;-1.784810E+2
1.138610E+2;4.024320E+3;-1.673000E+2
1.041566E+2;4.026860E+3;-1.552090E+2
9.527928E+1;4.033370E+3;-1.450510E+2
8.715858E+1;4.038460E+3;-1.366190E+2
7.973002E+1;4.038920E+3;-1.243180E+2
7.293459E+1;4.042120E+3;-1.173880E+2
6.671835E+1;4.048350E+3;-1.084220E+2
6.103191E+1;4.048780E+3;-1.018110E+2
5.583014E+1;4.048760E+3;-9.217840E+1
5.107171E+1;4.054030E+3;-8.765750E+1
4.671885E+1;4.055720E+3;-8.109110E+1
4.273698E+1;4.055880E+3;-7.731390E+1
3.909449E+1;4.059990E+3;-7.275260E+1
3.576245E+1;4.058290E+3;-6.499190E+1
3.271440E+1;4.062730E+3;-6.379280E+1
2.992614E+1;4.060980E+3;-5.411570E+1
2.737552E+1;4.059330E+3;-5.192410E+1
2.504229E+1;4.064480E+3;-4.553080E+1
2.290793E+1;4.062930E+3;-4.549140E+1
2.095547E+1;4.061600E+3;-4.122710E+1
1.916943E+1;4.067970E+3;-3.851970E+1
1.753561E+1;4.065030E+3;-4.310070E+1
1.604104E+1;4.067590E+3;-3.069060E+1
1.467386E+1;4.066150E+3;-3.364880E+1
1.342320E+1;4.065580E+3;-2.970990E+1
1.227913E+1;4.073620E+3;-3.783620E+1
1.123258E+1;4.070260E+3;-2.654990E+1
1.027522E+1;4.070950E+3;-2.330210E+1
9.399459E+0;4.065630E+3;-1.573350E+1
8.598339E+0;4.069090E+3;-2.513430E+1
7.865499E+0;4.070230E+3;-2.750150E+1
7.195119E+0;4.074940E+3;-2.585060E+1
6.581876E+0;4.088430E+3;-1.022150E+1
6.020900E+0;4.057980E+3;-2.161600E+1
5.507736E+0;4.060360E+3;7.408930E-2
5.038309E+0;4.069920E+3;-1.315090E+1
4.608892E+0;4.061730E+3;1.312640E+0
4.216074E+0;4.064590E+3;-1.842680E+1
3.856736E+0;4.087670E+3;-1.475040E+1
3.528025E+0;4.069620E+3;-5.171310E+0
3.227330E+0;4.069590E+3;-2.376650E+1
2.952263E+0;4.083790E+3;-1.983490E+0
2.700641E+0;4.073490E+3;-9.871160E+0
2.470464E+0;4.077190E+3;-8.568300E+0
2.259905E+0;4.069760E+3;-9.811810E+0
2.067292E+0;4.077640E+3;-3.561090E-1
1.891096E+0;4.070980E+3;-1.130200E+1
1.729917E+0;4.062400E+3;-1.680680E+1
1.582476E+0;4.074440E+3;-2.772770E+0
1.447601E+0;4.083830E+3;-5.285680E+0
1.324221E+0;4.059150E+3;-6.783360E+0
1.211357E+0;4.070600E+3;-7.461870E+0
1.108113E+0;4.066860E+3;-2.194850E+0
1.013668E+0;4.080640E+3;-5.153140E+0
9.272723E-1;4.081600E+3;-2.271370E+0
8.482405E-1;4.069450E+3;-1.123420E+1
7.759446E-1;4.064410E+3;-5.730100E-1
7.098105E-1;4.072930E+3;-3.486790E+0
6.493131E-1;4.071590E+3;8.331630E-1
5.939718E-1;4.075080E+3;9.090150E-1
5.433473E-1;4.084220E+3;6.081710E+0
4.970375E-1;4.077730E+3;-2.722100E+0
4.546748E-1;4.075490E+3;-8.225550E+0
4.159227E-1;4.078030E+3;-3.196780E+0
3.804735E-1;4.077710E+3;7.190780E+0
3.480456E-1;4.072530E+3;2.520900E+0
3.183815E-1;4.076840E+3;-2.102880E+0
2.912456E-1;4.067750E+3;-1.160310E+1
2.664226E-1;4.087650E+3;5.503450E+0
2.437154E-1;4.077010E+3;-5.883470E+0
2.229434E-1;4.069050E+3;6.668350E+0
2.039418E-1;4.077490E+3;-6.294250E+0
1.865599E-1;4.079850E+3;-3.133770E+0
1.706592E-1;4.067000E+3;1.685560E+0
1.561138E-1;4.092130E+3;-1.290670E+1
1.428082E-1;4.081830E+3;-1.090110E+1
1.306366E-1;4.074080E+3;-8.694730E+0
1.195025E-1;4.078320E+3;1.014740E+0
1.093171E-1;4.061540E+3;4.581690E+0
1.000000E-1;4.080980E+3;6.217790E+0
Freq /Hz, Zr , Zi ; Name: 50_500
5.000000E+6;6.981210E+0;-2.068150E+1
4.573848E+6;7.692800E+0;-2.160090E+1
4.184017E+6;8.391420E+0;-2.267600E+1
3.827411E+6;9.070700E+0;-2.388030E+1
3.501199E+6;9.752130E+0;-2.520690E+1
3.202791E+6;1.043270E+1;-2.668690E+1
2.929815E+6;1.114430E+1;-2.830640E+1
2.680106E+6;1.185910E+1;-3.011020E+1
2.451679E+6;1.261910E+1;-3.202980E+1
2.242722E+6;1.341210E+1;-3.414040E+1
2.051574E+6;1.425250E+1;-3.642930E+1
1.876717E+6;1.513510E+1;-3.891480E+1
1.716764E+6;1.608800E+1;-4.160310E+1
1.570443E+6;1.708940E+1;-4.450190E+1
1.436594E+6;1.816520E+1;-4.763180E+1
1.314152E+6;1.930960E+1;-5.101030E+1
1.202146E+6;2.052750E+1;-5.464330E+1
1.099687E+6;2.183750E+1;-5.856000E+1
1.005960E+6;2.323100E+1;-6.278330E+1
9.202217E+5;2.473150E+1;-6.732820E+1
8.417908E+5;2.633680E+1;-7.222210E+1
7.700446E+5;2.804300E+1;-7.749720E+1
7.044134E+5;2.989040E+1;-8.317810E+1
6.443759E+5;3.188270E+1;-8.930630E+1
5.894555E+5;3.401650E+1;-9.590370E+1
5.392159E+5;3.631780E+1;-1.030110E+2
4.932583E+5;3.882190E+1;-1.106750E+2
4.512177E+5;4.153610E+1;-1.189400E+2
4.127602E+5;4.447820E+1;-1.278370E+2
3.775805E+5;4.768820E+1;-1.374180E+2
3.453991E+5;5.118730E+1;-1.477470E+2
3.159606E+5;5.503430E+1;-1.588550E+2
2.890312E+5;5.923750E+1;-1.708010E+2
2.643969E+5;6.386750E+1;-1.836510E+2
2.418623E+5;6.896810E+1;-1.974690E+2
2.212482E+5;7.459250E+1;-2.122870E+2
2.023911E+5;8.081410E+1;-2.281900E+2
1.851413E+5;8.770700E+1;-2.452350E+2
1.693616E+5;9.534720E+1;-2.634860E+2
1.549268E+5;1.038100E+2;-2.829760E+2
1.417224E+5;1.131790E+2;-3.037890E+2
1.296433E+5;1.236130E+2;-3.259890E+2
1.185937E+5;1.350730E+2;-3.495290E+2
1.084859E+5;1.478740E+2;-3.745880E+2
9.923964E+4;1.621020E+2;-4.011950E+2
9.078140E+4;1.778010E+2;-4.292440E+2
8.304406E+4;1.951670E+2;-4.589290E+2
7.596618E+4;2.143960E+2;-4.901500E+2
6.949155E+4;2.356420E+2;-5.229200E+2
6.356876E+4;2.590680E+2;-5.573050E+2
5.815076E+4;2.848730E+2;-5.932340E+2
5.319455E+4;3.132000E+2;-6.305780E+2
4.866076E+4;3.442590E+2;-6.692620E+2
4.451338E+4;3.782790E+2;-7.093200E+2
4.071948E+4;4.154370E+2;-7.506920E+2
3.724894E+4;4.564260E+2;-7.932450E+2
3.407420E+4;5.004460E+2;-8.362750E+2
3.117004E+4;5.481680E+2;-8.799650E+2
2.851341E+4;5.996790E+2;-9.240160E+2
2.608320E+4;6.551450E+2;-9.681820E+2
2.386011E+4;7.146790E+2;-1.012140E+3
2.182651E+4;7.781880E+2;-1.055620E+3
1.996622E+4;8.459140E+2;-1.098180E+3
1.826449E+4;9.176790E+2;-1.139500E+3
1.670780E+4;9.935070E+2;-1.179240E+3
1.528379E+4;1.073190E+3;-1.216960E+3
1.398115E+4;1.156690E+3;-1.252420E+3
1.278953E+4;1.243560E+3;-1.285050E+3
1.169947E+4;1.333820E+3;-1.314670E+3
1.070232E+4;1.426740E+3;-1.340820E+3
9.790156E+3;1.522440E+3;-1.363370E+3
8.955737E+3;1.620130E+3;-1.381930E+3
8.192435E+3;1.719410E+3;-1.396580E+3
7.494190E+3;1.820160E+3;-1.406940E+3
6.855457E+3;1.921590E+3;-1.412810E+3
6.271164E+3;2.023510E+3;-1.414690E+3
5.736670E+3;2.124820E+3;-1.411740E+3
5.247731E+3;2.225430E+3;-1.404780E+3
4.800465E+3;2.325010E+3;-1.393410E+3
4.391319E+3;2.423200E+3;-1.378500E+3
4.017045E+3;2.519550E+3;-1.359900E+3
3.674670E+3;2.613040E+3;-1.337180E+3
3.361477E+3;2.704330E+3;-1.311880E+3
3.074977E+3;2.792740E+3;-1.283670E+3
2.812895E+3;2.878070E+3;-1.252590E+3
2.573151E+3;2.960190E+3;-1.219210E+3
2.353840E+3;3.038890E+3;-1.183900E+3
2.153221E+3;3.113930E+3;-1.146750E+3
1.969701E+3;3.185230E+3;-1.108500E+3
1.801823E+3;3.252960E+3;-1.069490E+3
1.648253E+3;3.317140E+3;-1.029380E+3
1.507771E+3;3.377650E+3;-9.883530E+2
1.379263E+3;3.434920E+3;-9.480910E+2
1.261708E+3;3.487950E+3;-9.067820E+2
1.154172E+3;3.537640E+3;-8.666850E+2
1.055802E+3;3.584200E+3;-8.265550E+2
9.658152E+2;3.628190E+3;-7.865870E+2
8.834983E+2;3.669180E+3;-7.479260E+2
8.081974E+2;3.705740E+3;-7.097870E+2
7.393144E+2;3.741300E+3;-6.733280E+2
6.763023E+2;3.773240E+3;-6.368720E+2
6.186608E+2;3.802730E+3;-6.023510E+2
5.659320E+2;3.830310E+3;-5.679490E+2
5.176974E+2;3.856410E+3;-5.356560E+2
4.735738E+2;3.878350E+3;-5.055850E+2
4.332109E+2;3.899890E+3;-4.755940E+2
3.962882E+2;3.918880E+3;-4.471480E+2
3.625124E+2;3.936900E+3;-4.198250E+2
3.316153E+2;3.953340E+3;-3.939250E+2
3.033516E+2;3.968910E+3;-3.696910E+2
2.774968E+2;3.982260E+3;-3.467840E+2
2.538456E+2;3.994290E+3;-3.244460E+2
2.322102E+2;4.006190E+3;-3.036240E+2
2.124189E+2;4.016660E+3;-2.837410E+2
1.943143E+2;4.025660E+3;-2.661090E+2
1.777528E+2;4.034780E+3;-2.471860E+2
1.626029E+2;4.042030E+3;-2.304660E+2
1.487442E+2;4.049390E+3;-2.172690E+2
1.360666E+2;4.054830E+3;-2.013760E+2
1.244696E+2;4.062370E+3;-1.886720E+2
1.138610E+2;4.068310E+3;-1.753660E+2
1.041566E+2;4.071820E+3;-1.632250E+2
9.527928E+1;4.076550E+3;-1.520180E+2
8.715858E+1;4.080670E+3;-1.411950E+2
7.973002E+1;4.084560E+3;-1.324270E+2
7.293459E+1;4.088110E+3;-1.240750E+2
6.671835E+1;4.091980E+3;-1.151300E+2
6.103191E+1;4.093610E+3;-1.048650E+2
5.583014E+1;4.095720E+3;-9.825350E+1
5.107171E+1;4.100440E+3;-9.190340E+1
4.671885E+1;4.102630E+3;-8.712390E+1
4.273698E+1;4.104710E+3;-7.942290E+1
3.909449E+1;4.105440E+3;-7.449950E+1
3.576245E+1;4.106840E+3;-7.091280E+1
3.271440E+1;4.111050E+3;-6.423480E+1
2.992614E+1;4.109660E+3;-6.115540E+1
2.737552E+1;4.114190E+3;-5.598870E+1
2.504229E+1;4.116330E+3;-5.528990E+1
2.290793E+1;4.116790E+3;-4.569710E+1
2.095547E+1;4.118230E+3;-4.587760E+1
1.916943E+1;4.115960E+3;-3.849700E+1
1.753561E+1;4.115250E+3;-3.526970E+1
1.604104E+1;4.122390E+3;-3.462040E+1
1.467386E+1;4.121920E+3;-3.344100E+1
1.342320E+1;4.119860E+3;-3.217750E+1
1.227913E+1;4.122470E+3;-3.913020E+1
1.123258E+1;4.123900E+3;-2.536890E+1
1.027522E+1;4.120880E+3;-2.551710E+1
9.399459E+0;4.120330E+3;-2.263540E+1
8.598339E+0;4.133500E+3;-2.059190E+1
7.865499E+0;4.126590E+3;-2.616140E+1
7.195119E+0;4.128610E+3;-2.287280E+1
6.581876E+0;4.138450E+3;-4.204620E+0
6.020900E+0;4.126220E+3;-2.524470E+1
5.507736E+0;4.110250E+3;-9.708720E+0
5.038309E+0;4.124900E+3;-9.303350E+0
4.608892E+0;4.115000E+3;-2.815250E+0
4.216074E+0;4.116940E+3;-2.339120E+1
3.856736E+0;4.139470E+3;-1.086250E+1
3.528025E+0;4.130000E+3;-6.534120E+0
3.227330E+0;4.119760E+3;-1.333670E+0
2.952263E+0;4.133310E+3;-1.602970E+1
2.700641E+0;4.124570E+3;-6.945020E+0
2.470464E+0;4.126530E+3;-1.269520E+1
2.259905E+0;4.122920E+3;-2.301770E+0
2.067292E+0;4.126120E+3;-1.887030E+1
1.891096E+0;4.124780E+3;-6.610790E+0
1.729917E+0;4.126200E+3;-4.957030E+0
1.582476E+0;4.127790E+3;-9.775370E+0
1.447601E+0;4.114340E+3;-1.296400E+1
1.324221E+0;4.116800E+3;-2.349810E+0
1.211357E+0;4.125600E+3;-5.940070E+0
1.108113E+0;4.131640E+3;-4.798630E+0
1.013668E+0;4.128320E+3;-1.135980E+1
9.272723E-1;4.126680E+3;-8.951950E-1
8.482405E-1;4.111870E+3;7.604550E-1
7.759446E-1;4.125540E+3;-6.106140E+0
7.098105E-1;4.127480E+3;1.293620E+0
6.493131E-1;4.126170E+3;-4.307470E+0
5.939718E-1;4.135050E+3;8.833070E-1
5.433473E-1;4.128270E+3;-4.183470E+0
4.970375E-1;4.123760E+3;-3.100190E+0
4.546748E-1;4.124370E+3;7.589660E-1
4.159227E-1;4.130530E+3;-8.137250E+0
3.804735E-1;4.136150E+3;-4.222440E-1
3.480456E-1;4.119710E+3;2.795160E+0
3.183815E-1;4.128680E+3;-6.535980E-2
2.912456E-1;4.134630E+3;-2.829050E+0
2.664226E-1;4.134940E+3;-3.227260E+0
2.437154E-1;4.131650E+3;-8.735170E+0
2.229434E-1;4.129000E+3;1.766430E+1
2.039418E-1;4.133310E+3;1.643010E-1
1.865599E-1;4.131930E+3;5.873700E-1
1.706592E-1;4.130890E+3;-3.097780E+0
1.561138E-1;4.152360E+3;1.074900E+1
1.428082E-1;4.130480E+3;2.019170E-1
1.306366E-1;4.125640E+3;-1.390790E+1
1.195025E-1;4.135790E+3;-1.421220E+0
1.093171E-1;4.144690E+3;6.698680E+0
1.000000E-1;4.129150E+3;-1.014260E+1
Freq /Hz, Zr , Zi ; Name: 50_200
5.000000E+6;9.204720E+0;-1.551400E+1
4.573848E+6;9.546060E+0;-1.686430E+1
4.184017E+6;9.920270E+0;-1.831930E+1
3.827411E+6;1.032820E+1;-1.987400E+1
3.501199E+6;1.077840E+1;-2.153280E+1
3.202791E+6;1.127050E+1;-2.330810E+1
2.929815E+6;1.180690E+1;-2.520810E+1
2.680106E+6;1.238730E+1;-2.724110E+1
2.451679E+6;1.302910E+1;-2.940990E+1
2.242722E+6;1.372290E+1;-3.173690E+1
2.051574E+6;1.447550E+1;-3.422350E+1
1.876717E+6;1.529110E+1;-3.688690E+1
1.716764E+6;1.617390E+1;-3.973780E+1
1.570443E+6;1.712590E+1;-4.278890E+1
1.436594E+6;1.815230E+1;-4.605840E+1
1.314152E+6;1.925860E+1;-4.956240E+1
1.202146E+6;2.044770E+1;-5.331380E+1
1.099687E+6;2.172720E+1;-5.734100E+1
1.005960E+6;2.310130E+1;-6.166230E+1
9.202217E+5;2.457560E+1;-6.629660E+1
8.417908E+5;2.616140E+1;-7.127860E+1
7.700446E+5;2.786490E+1;-7.662860E+1
7.044134E+5;2.969850E+1;-8.238730E+1
6.443759E+5;3.167060E+1;-8.857430E+1
5.894555E+5;3.380120E+1;-9.523270E+1
5.392159E+5;3.610270E+1;-1.023980E+2
4.932583E+5;3.859050E+1;-1.101100E+2
4.512177E+5;4.129560E+1;-1.184250E+2
4.127602E+5;4.423530E+1;-1.273680E+2
3.775805E+5;4.743920E+1;-1.369930E+2
3.453991E+5;5.094090E+1;-1.473510E+2
3.159606E+5;5.477500E+1;-1.585010E+2
2.890312E+5;5.898890E+1;-1.704850E+2
2.643969E+5;6.361650E+1;-1.833760E+2
2.418623E+5;6.870930E+1;-1.972150E+2
2.212482E+5;7.434550E+1;-2.120740E+2
2.023911E+5;8.057080E+1;-2.280050E+2
1.851413E+5;8.745440E+1;-2.450670E+2
1.693616E+5;9.508050E+1;-2.633200E+2
1.549268E+5;1.035350E+2;-2.828250E+2
1.417224E+5;1.129080E+2;-3.036370E+2
1.296433E+5;1.233160E+2;-3.258220E+2
1.185937E+5;1.348410E+2;-3.494190E+2
1.084859E+5;1.476380E+2;-3.744870E+2
9.923964E+4;1.618040E+2;-4.010810E+2
9.078140E+4;1.775350E+2;-4.291590E+2
8.304406E+4;1.948860E+2;-4.588210E+2
7.596618E+4;2.141170E+2;-4.900360E+2
6.949155E+4;2.353340E+2;-5.228480E+2
6.356876E+4;2.587270E+2;-5.572160E+2
5.815076E+4;2.844500E+2;-5.931120E+2
5.319455E+4;3.128180E+2;-6.304170E+2
4.866076E+4;3.437540E+2;-6.692060E+2
4.451338E+4;3.776960E+2;-7.092860E+2
4.071948E+4;4.148510E+2;-7.504420E+2
3.724894E+4;4.556070E+2;-7.930300E+2
3.407420E+4;4.995040E+2;-8.361070E+2
3.117004E+4;5.469590E+2;-8.798190E+2
2.851341E+4;5.982390E+2;-9.239180E+2
2.608320E+4;6.534200E+2;-9.681600E+2
2.386011E+4;7.125620E+2;-1.012270E+3
2.182651E+4;7.756930E+2;-1.055810E+3
1.996622E+4;8.429350E+2;-1.098650E+3
1.826449E+4;9.142400E+2;-1.140330E+3
1.670780E+4;9.895160E+2;-1.180460E+3
1.528379E+4;1.068590E+3;-1.218720E+3
1.398115E+4;1.151410E+3;-1.254810E+3
1.278953E+4;1.237620E+3;-1.288300E+3
1.169947E+4;1.327170E+3;-1.318820E+3
1.070232E+4;1.419540E+3;-1.346280E+3
9.790156E+3;1.514590E+3;-1.370090E+3
8.955737E+3;1.611810E+3;-1.390510E+3
8.192435E+3;1.710600E+3;-1.406800E+3
7.494190E+3;1.811150E+3;-1.419060E+3
6.855457E+3;1.912330E+3;-1.427140E+3
6.271164E+3;2.014000E+3;-1.431240E+3
5.736670E+3;2.115890E+3;-1.431120E+3
5.247731E+3;2.217100E+3;-1.426830E+3
4.800465E+3;2.317530E+3;-1.418700E+3
4.391319E+3;2.416980E+3;-1.406670E+3
4.017045E+3;2.514390E+3;-1.390770E+3
3.674670E+3;2.610190E+3;-1.371710E+3
3.361477E+3;2.703450E+3;-1.349300E+3
3.074977E+3;2.794600E+3;-1.323710E+3
2.812895E+3;2.882480E+3;-1.295710E+3
2.573151E+3;2.967520E+3;-1.265120E+3
2.353840E+3;3.049630E+3;-1.232590E+3
2.153221E+3;3.128260E+3;-1.197950E+3
1.969701E+3;3.203660E+3;-1.162410E+3
1.801823E+3;3.275270E+3;-1.124390E+3
1.648253E+3;3.343960E+3;-1.086170E+3
1.507771E+3;3.408900E+3;-1.047410E+3
1.379263E+3;3.470500E+3;-1.008050E+3
1.261708E+3;3.529010E+3;-9.683860E+2
1.154172E+3;3.583460E+3;-9.278150E+2
1.055802E+3;3.634830E+3;-8.878490E+2
9.658152E+2;3.683460E+3;-8.491320E+2
8.834983E+2;3.728580E+3;-8.100060E+2
8.081974E+2;3.771030E+3;-7.708120E+2
7.393144E+2;3.809760E+3;-7.331350E+2
6.763023E+2;3.846850E+3;-6.970190E+2
6.186608E+2;3.880410E+3;-6.612240E+2
5.659320E+2;3.912760E+3;-6.266190E+2
5.176974E+2;3.941680E+3;-5.926240E+2
4.735738E+2;3.968280E+3;-5.603760E+2
4.332109E+2;3.992780E+3;-5.286720E+2
3.962882E+2;4.016040E+3;-4.985760E+2
3.625124E+2;4.037300E+3;-4.697120E+2
3.316153E+2;4.056730E+3;-4.426310E+2
3.033516E+2;4.074630E+3;-4.155400E+2
2.774968E+2;4.091410E+3;-3.911970E+2
2.538456E+2;4.105690E+3;-3.666470E+2
2.322102E+2;4.118610E+3;-3.444570E+2
2.124189E+2;4.131950E+3;-3.219870E+2
1.943143E+2;4.144080E+3;-3.021240E+2
1.777528E+2;4.154180E+3;-2.834080E+2
1.626029E+2;4.163660E+3;-2.644380E+2
1.487442E+2;4.172420E+3;-2.465710E+2
1.360666E+2;4.181370E+3;-2.310560E+2
1.244696E+2;4.186620E+3;-2.155320E+2
1.138610E+2;4.195370E+3;-2.014450E+2
1.041566E+2;4.201730E+3;-1.889300E+2
9.527928E+1;4.207420E+3;-1.758580E+2
8.715858E+1;4.211500E+3;-1.636770E+2
7.973002E+1;4.216490E+3;-1.528750E+2
7.293459E+1;4.221650E+3;-1.437230E+2
6.671835E+1;4.225250E+3;-1.336540E+2
6.103191E+1;4.229220E+3;-1.251120E+2
5.583014E+1;4.232240E+3;-1.137210E+2
5.107171E+1;4.236950E+3;-1.068980E+2
4.671885E+1;4.238740E+3;-1.000910E+2
4.273698E+1;4.240000E+3;-9.235400E+1
3.909449E+1;4.243200E+3;-8.519590E+1
3.576245E+1;4.244590E+3;-8.198190E+1
3.271440E+1;4.247910E+3;-7.476120E+1
2.992614E+1;4.248560E+3;-6.984580E+1
2.737552E+1;4.249540E+3;-6.425260E+1
2.504229E+1;4.251230E+3;-6.064410E+1
2.290793E+1;4.253920E+3;-5.681660E+1
2.095547E+1;4.256680E+3;-5.379330E+1
1.916943E+1;4.257690E+3;-4.896630E+1
1.753561E+1;4.258560E+3;-4.388220E+1
1.604104E+1;4.259680E+3;-4.130840E+1
1.467386E+1;4.261560E+3;-4.079110E+1
1.342320E+1;4.261670E+3;-3.638800E+1
1.227913E+1;4.264110E+3;-3.629810E+1
1.123258E+1;4.266960E+3;-2.693500E+1
1.027522E+1;4.269370E+3;-2.813860E+1
9.399459E+0;4.267890E+3;-2.740270E+1
8.598339E+0;4.266530E+3;-2.460740E+1
7.865499E+0;4.265510E+3;-2.715430E+1
7.195119E+0;4.264290E+3;-2.106200E+1
6.581876E+0;4.272600E+3;-1.728150E+1
6.020900E+0;4.269160E+3;-2.010240E+1
5.507736E+0;4.267790E+3;-2.289140E+1
5.038309E+0;4.268460E+3;-1.533120E+1
4.608892E+0;4.271420E+3;-1.436200E+1
4.216074E+0;4.275150E+3;-1.693940E+1
3.856736E+0;4.267400E+3;-1.386310E+1
3.528025E+0;4.274880E+3;-1.404740E+1
3.227330E+0;4.267660E+3;-1.425620E+1
2.952263E+0;4.270910E+3;-1.178940E+1
2.700641E+0;4.273040E+3;-9.913010E+0
2.470464E+0;4.276020E+3;-1.622490E+1
2.259905E+0;4.277550E+3;-7.307920E+0
2.067292E+0;4.272250E+3;-5.573600E+0
1.891096E+0;4.274120E+3;-6.864220E+0
1.729917E+0;4.269820E+3;-7.775690E+0
1.582476E+0;4.274410E+3;-5.618260E+0
1.447601E+0;4.275730E+3;-1.773180E+0
1.324221E+0;4.271800E+3;-9.611430E+0
1.211357E+0;4.272180E+3;-2.761180E+0
1.108113E+0;4.276570E+3;-6.101730E+0
1.013668E+0;4.277730E+3;-5.137710E+0
9.272723E-1;4.280300E+3;9.456050E-1
8.482405E-1;4.279950E+3;-4.770110E+0
7.759446E-1;4.269140E+3;-2.939330E+0
7.098105E-1;4.280470E+3;-9.624260E+0
6.493131E-1;4.273290E+3;-4.010520E+0
5.939718E-1;4.277870E+3;-1.969520E+0
5.433473E-1;4.270950E+3;-7.506840E-1
4.970375E-1;4.283590E+3;1.429500E+0
4.546748E-1;4.279160E+3;-1.235300E+1
4.159227E-1;4.277300E+3;-1.408390E+0
3.804735E-1;4.268870E+3;-4.364970E+0
3.480456E-1;4.278810E+3;2.021690E+0
3.183815E-1;4.277660E+3;-2.141970E+0
2.912456E-1;4.278610E+3;-8.926240E-1
2.664226E-1;4.281650E+3;-3.475130E+0
2.437154E-1;4.276130E+3;4.862710E-1
2.229434E-1;4.274830E+3;-9.122060E+0
2.039418E-1;4.276310E+3;-4.617980E+0
1.865599E-1;4.279820E+3;1.650010E+0
1.706592E-1;4.278930E+3;-5.441140E+0
1.561138E-1;4.271220E+3;-3.126850E+0
1.428082E-1;4.272650E+3;3.012830E+0
1.306366E-1;4.277300E+3;-1.182890E-1
1.195025E-1;4.270360E+3;-6.810850E+0
1.093171E-1;4.266050E+3;2.798310E+0
1.000000E-1;4.271700E+3;4.703670E+0
Freq /Hz, Zr , Zi ; Name: 50_120
5.000000E+6;8.862820E+0;-1.551590E+1
4.627078E+6;9.157030E+0;-1.668610E+1
4.281971E+6;9.473820E+0;-1.793570E+1
3.962602E+6;9.818740E+0;-1.925810E+1
3.667054E+6;1.019090E+1;-2.066220E+1
3.393549E+6;1.059490E+1;-2.214820E+1
3.140444E+6;1.103150E+1;-2.372270E+1
2.906216E+6;1.150270E+1;-2.539590E+1
2.689457E+6;1.200570E+1;-2.716880E+1
2.488866E+6;1.255760E+1;-2.904410E+1
2.303236E+6;1.314550E+1;-3.103890E+1
2.131450E+6;1.377900E+1;-3.315510E+1
1.972477E+6;1.445770E+1;-3.539710E+1
1.825361E+6;1.518590E+1;-3.778150E+1
1.689218E+6;1.596450E+1;-4.030500E+1
1.563229E+6;1.679690E+1;-4.298770E+1
1.446636E+6;1.768710E+1;-4.583520E+1
1.338740E+6;1.863330E+1;-4.885750E+1
1.238891E+6;1.964620E+1;-5.207070E+1
1.146489E+6;2.072330E+1;-5.548550E+1
1.060979E+6;2.187030E+1;-5.911230E+1
9.818463E+5;2.309150E+1;-6.297160E+1
9.086159E+5;2.439020E+1;-6.707680E+1
8.408474E+5;2.577400E+1;-7.144560E+1
7.781333E+5;2.724650E+1;-7.609950E+1
7.200968E+5;2.881730E+1;-8.105170E+1
6.663888E+5;3.048940E+1;-8.632610E+1
6.166866E+5;3.227490E+1;-9.194880E+1
5.706914E+5;3.418630E+1;-9.794660E+1
5.281268E+5;3.623030E+1;-1.043450E+2
4.887368E+5;3.842000E+1;-1.111580E+2
4.522847E+5;4.077170E+1;-1.184280E+2
4.185513E+5;4.330500E+1;-1.261820E+2
3.873339E+5;4.603200E+1;-1.344500E+2
3.584449E+5;4.899970E+1;-1.433470E+2
3.317105E+5;5.218410E+1;-1.527500E+2
3.069701E+5;5.563160E+1;-1.627590E+2
2.840749E+5;5.937430E+1;-1.734310E+2
2.628874E+5;6.343950E+1;-1.847940E+2
2.432801E+5;6.786340E+1;-1.968850E+2
2.251352E+5;7.268290E+1;-2.097480E+2
2.083436E+5;7.793890E+1;-2.234170E+2
1.928044E+5;8.367690E+1;-2.379370E+2
1.784242E+5;8.994740E+1;-2.533480E+2
1.651166E+5;9.679990E+1;-2.696930E+2
1.528015E+5;1.042990E+2;-2.870030E+2
1.414049E+5;1.125010E+2;-3.053240E+2
1.308583E+5;1.214800E+2;-3.246960E+2
1.210983E+5;1.313040E+2;-3.451460E+2
1.120663E+5;1.420620E+2;-3.667080E+2
1.037079E+5;1.538280E+2;-3.894210E+2
9.597288E+4;1.666970E+2;-4.132950E+2
8.881481E+4;1.807540E+2;-4.383390E+2
8.219061E+4;1.961050E+2;-4.645980E+2
7.606048E+4;2.128730E+2;-4.920820E+2
7.038756E+4;2.311480E+2;-5.207680E+2
6.513774E+4;2.510490E+2;-5.506680E+2
6.027949E+4;2.726980E+2;-5.817430E+2
5.578358E+4;2.962360E+2;-6.139700E+2
5.162300E+4;3.217520E+2;-6.473340E+2
4.777273E+4;3.494130E+2;-6.817550E+2
4.420963E+4;3.793120E+2;-7.171630E+2
4.091228E+4;4.115940E+2;-7.535010E+2
3.786087E+4;4.463700E+2;-7.906900E+2
3.503704E+4;4.837680E+2;-8.285390E+2
3.242382E+4;5.239120E+2;-8.670290E+2
3.000551E+4;5.668810E+2;-9.058720E+2
2.776757E+4;6.127790E+2;-9.450390E+2
2.569654E+4;6.616570E+2;-9.842660E+2
2.377998E+4;7.136390E+2;-1.023460E+3
2.200637E+4;7.687370E+2;-1.062320E+3
2.036504E+4;8.268960E+2;-1.100680E+3
1.884612E+4;8.882050E+2;-1.138240E+3
1.744050E+4;9.525860E+2;-1.174830E+3
1.613971E+4;1.020120E+3;-1.210250E+3
1.493594E+4;1.090470E+3;-1.244070E+3
1.382195E+4;1.163720E+3;-1.276250E+3
1.279105E+4;1.239600E+3;-1.306600E+3
1.183704E+4;1.318160E+3;-1.334710E+3
1.095418E+4;1.398920E+3;-1.360360E+3
1.013717E+4;1.481790E+3;-1.383560E+3
9.381096E+3;1.566690E+3;-1.403950E+3
8.681413E+3;1.653290E+3;-1.421580E+3
8.033915E+3;1.741420E+3;-1.436500E+3
7.434711E+3;1.830350E+3;-1.448050E+3
6.880198E+3;1.920060E+3;-1.456460E+3
6.367042E+3;2.010230E+3;-1.461680E+3
5.892161E+3;2.100640E+3;-1.463720E+3
5.452698E+3;2.190910E+3;-1.462600E+3
5.046012E+3;2.280790E+3;-1.458370E+3
4.669658E+3;2.369970E+3;-1.451080E+3
4.321375E+3;2.458240E+3;-1.440850E+3
3.999068E+3;2.545320E+3;-1.427800E+3
3.700800E+3;2.631040E+3;-1.412070E+3
3.424778E+3;2.715150E+3;-1.393830E+3
3.169343E+3;2.797290E+3;-1.373110E+3
2.932960E+3;2.877480E+3;-1.350200E+3
2.714207E+3;2.955580E+3;-1.325300E+3
2.511769E+3;3.031360E+3;-1.298530E+3
2.324431E+3;3.104780E+3;-1.270120E+3
2.151064E+3;3.175760E+3;-1.240260E+3
1.990629E+3;3.244190E+3;-1.209110E+3
1.842159E+3;3.310060E+3;-1.176890E+3
1.704763E+3;3.373230E+3;-1.143720E+3
1.577614E+3;3.433860E+3;-1.109840E+3
1.459949E+3;3.491750E+3;-1.075400E+3
1.351059E+3;3.547040E+3;-1.040550E+3
1.250291E+3;3.599660E+3;-1.005390E+3
1.157039E+3;3.649770E+3;-9.701750E+2
1.070742E+3;3.697300E+3;-9.349970E+2
9.908816E+2;3.742470E+3;-8.999600E+2
9.169773E+2;3.785140E+3;-8.651850E+2
8.485852E+2;3.825420E+3;-8.307690E+2
7.852940E+2;3.863430E+3;-7.967660E+2
7.267233E+2;3.899090E+3;-7.633740E+2
6.725211E+2;3.932810E+3;-7.306020E+2
6.223616E+2;3.964430E+3;-6.984800E+2
5.759431E+2;3.994130E+3;-6.671300E+2
5.329868E+2;4.021900E+3;-6.366170E+2
4.932343E+2;4.047900E+3;-6.068910E+2
4.564467E+2;4.072230E+3;-5.781100E+2
4.224029E+2;4.094880E+3;-5.501760E+2
3.908983E+2;4.116000E+3;-5.231870E+2
3.617434E+2;4.135760E+3;-4.970830E+2
3.347630E+2;4.154030E+3;-4.720420E+2
3.097949E+2;4.171000E+3;-4.478450E+2
2.866891E+2;4.186920E+3;-4.246600E+2
2.653065E+2;4.201720E+3;-4.022870E+2
2.455188E+2;4.215610E+3;-3.809770E+2
2.272069E+2;4.227930E+3;-3.606310E+2
2.102609E+2;4.239780E+3;-3.412360E+2
1.945787E+2;4.250650E+3;-3.224720E+2
1.800662E+2;4.260840E+3;-3.046350E+2
1.666360E+2;4.270380E+3;-2.879000E+2
1.542076E+2;4.278690E+3;-2.717420E+2
1.427061E+2;4.287180E+3;-2.565350E+2
1.320625E+2;4.294360E+3;-2.419420E+2
1.222127E+2;4.301030E+3;-2.283260E+2
1.130975E+2;4.307650E+3;-2.153000E+2
1.046622E+2;4.312960E+3;-2.032400E+2
9.685606E+1;4.318480E+3;-1.911490E+2
8.963211E+1;4.323660E+3;-1.798900E+2
8.294696E+1;4.328030E+3;-1.692250E+2
7.676041E+1;4.332410E+3;-1.590910E+2
7.103528E+1;4.336720E+3;-1.496770E+2
6.573716E+1;4.340570E+3;-1.409720E+2
6.083420E+1;4.343590E+3;-1.327810E+2
5.629692E+1;4.346600E+3;-1.245970E+2
5.209805E+1;4.349350E+3;-1.175570E+2
4.821235E+1;4.351800E+3;-1.107230E+2
4.461646E+1;4.354650E+3;-1.038270E+2
4.128877E+1;4.356900E+3;-9.713510E+1
3.820927E+1;4.358890E+3;-9.169840E+1
3.535946E+1;4.361080E+3;-8.618010E+1
3.272220E+1;4.363230E+3;-8.090870E+1
3.028163E+1;4.364400E+3;-7.617110E+1
2.802310E+1;4.365910E+3;-7.151610E+1
2.593301E+1;4.367080E+3;-6.725190E+1
2.399882E+1;4.368620E+3;-6.308420E+1
2.220888E+1;4.369900E+3;-5.920120E+1
2.055244E+1;4.370970E+3;-5.557790E+1
1.901955E+1;4.371890E+3;-5.225680E+1
1.760099E+1;4.372990E+3;-4.958680E+1
1.628823E+1;4.373880E+3;-4.624870E+1
1.507339E+1;4.374800E+3;-4.340960E+1
1.394915E+1;4.375640E+3;-4.076770E+1
1.290876E+1;4.376580E+3;-3.820140E+1
1.194597E+1;4.377160E+3;-3.589100E+1
1.105498E+1;4.377740E+3;-3.384890E+1
1.023046E+1;4.378350E+3;-3.149880E+1
9.467424E+0;4.379170E+3;-2.974570E+1
8.761302E+0;4.379500E+3;-2.810070E+1
8.107846E+0;4.379900E+3;-2.631850E+1
7.503127E+0;4.380510E+3;-2.470600E+1
6.943511E+0;4.380770E+3;-2.340530E+1
6.425634E+0;4.380930E+3;-2.178690E+1
5.946382E+0;4.381140E+3;-2.076110E+1
5.502875E+0;4.381810E+3;-1.977410E+1
5.092447E+0;4.382090E+3;-1.816500E+1
4.712630E+0;4.382220E+3;-1.705220E+1
4.361141E+0;4.382650E+3;-1.602570E+1
4.035868E+0;4.382430E+3;-1.507990E+1
3.734856E+0;4.382730E+3;-1.420180E+1
3.456294E+0;4.382920E+3;-1.332960E+1
3.198508E+0;4.383100E+3;-1.244610E+1
2.959950E+0;4.383340E+3;-1.195340E+1
2.739184E+0;4.383410E+3;-1.131050E+1
2.534883E+0;4.383310E+3;-1.025730E+1
2.345821E+0;4.383190E+3;-1.005420E+1
2.170859E+0;4.383190E+3;-9.214360E+0
2.008947E+0;4.383270E+3;-8.853890E+0
1.859111E+0;4.383120E+3;-8.204150E+0
1.720450E+0;4.383280E+3;-7.910820E+0
1.592132E+0;4.383350E+3;-7.453700E+0
1.473384E+0;4.383380E+3;-7.080230E+0
1.363492E+0;4.383640E+3;-6.785320E+0
1.261797E+0;4.383490E+3;-6.273320E+0
1.167687E+0;4.383660E+3;-5.984630E+0
1.080595E+0;4.383580E+3;-5.615750E+0
1.000000E+0;4.383380E+3;-5.571470E+0
Freq /Hz, Zr , Zi ; Name: 50_100
5.000000E+6;8.861130E+0;-1.551500E+1
4.627078E+6;9.155520E+0;-1.668380E+1
4.281971E+6;9.473140E+0;-1.793340E+1
3.962602E+6;9.816530E+0;-1.925740E+1
3.667054E+6;1.018790E+1;-2.066010E+1
3.393549E+6;1.059170E+1;-2.214850E+1
3.140444E+6;1.102840E+1;-2.372320E+1
2.906216E+6;1.150020E+1;-2.539660E+1
2.689457E+6;1.200240E+1;-2.716880E+1
2.488866E+6;1.255290E+1;-2.904720E+1
2.303236E+6;1.314280E+1;-3.104260E+1
2.131450E+6;1.377450E+1;-3.315830E+1
1.972477E+6;1.445300E+1;-3.540250E+1
1.825361E+6;1.518110E+1;-3.778480E+1
1.689218E+6;1.595920E+1;-4.031270E+1
1.563229E+6;1.679140E+1;-4.299350E+1
1.446636E+6;1.768090E+1;-4.584340E+1
1.338740E+6;1.862940E+1;-4.887020E+1
1.238891E+6;1.963960E+1;-5.208120E+1
1.146489E+6;2.071780E+1;-5.549690E+1
1.060979E+6;2.186420E+1;-5.912640E+1
9.818463E+5;2.308420E+1;-6.298960E+1
9.086159E+5;2.438400E+1;-6.709670E+1
8.408474E+5;2.576770E+1;-7.146960E+1
7.781333E+5;2.724030E+1;-7.612140E+1
7.200968E+5;2.880960E+1;-8.107680E+1
6.663888E+5;3.048490E+1;-8.636120E+1
6.166866E+5;3.227070E+1;-9.198510E+1
5.706914E+5;3.417910E+1;-9.798280E+1
5.281268E+5;3.622390E+1;-1.043790E+2
4.887368E+5;3.841770E+1;-1.112030E+2
4.522847E+5;4.076790E+1;-1.184760E+2
4.185513E+5;4.329900E+1;-1.262360E+2
3.873339E+5;4.602580E+1;-1.345040E+2
3.584449E+5;4.899090E+1;-1.434110E+2
3.317105E+5;5.217430E+1;-1.528170E+2
3.069701E+5;5.562220E+1;-1.628350E+2
2.840749E+5;5.936240E+1;-1.735140E+2
2.628874E+5;6.342730E+1;-1.848850E+2
2.432801E+5;6.784780E+1;-1.969830E+2
2.251352E+5;7.266400E+1;-2.098520E+2
2.083436E+5;7.791810E+1;-2.235330E+2
1.928044E+5;8.365420E+1;-2.380640E+2
1.784242E+5;8.991740E+1;-2.534840E+2
1.651166E+5;9.676740E+1;-2.698390E+2
1.528015E+5;1.042650E+2;-2.871740E+2
1.414049E+5;1.124630E+2;-3.055020E+2
1.308583E+5;1.214370E+2;-3.248950E+2
1.210983E+5;1.312560E+2;-3.453630E+2
1.120663E+5;1.420040E+2;-3.669460E+2
1.037079E+5;1.537620E+2;-3.896730E+2
9.597288E+4;1.666250E+2;-4.135820E+2
8.881481E+4;1.806740E+2;-4.386620E+2
8.219061E+4;1.960270E+2;-4.649530E+2
7.606048E+4;2.127790E+2;-4.924580E+2
7.038756E+4;2.310550E+2;-5.211950E+2
6.513774E+4;2.509360E+2;-5.511150E+2
6.027949E+4;2.725930E+2;-5.822400E+2
5.578358E+4;2.961260E+2;-6.145400E+2
5.162300E+4;3.216450E+2;-6.479460E+2
4.777273E+4;3.492770E+2;-6.824270E+2
4.420963E+4;3.791950E+2;-7.179180E+2
4.091228E+4;4.114840E+2;-7.543260E+2
3.786087E+4;4.462700E+2;-7.915830E+2
3.503704E+4;4.836950E+2;-8.295490E+2
3.242382E+4;5.238470E+2;-8.680840E+2
3.000551E+4;5.668270E+2;-9.070810E+2
2.776757E+4;6.127200E+2;-9.463420E+2
2.569654E+4;6.617070E+2;-9.857240E+2
2.377998E+4;7.136740E+2;-1.024940E+3
2.200637E+4;7.687340E+2;-1.063890E+3
2.036504E+4;8.269480E+2;-1.102370E+3
1.884612E+4;8.883770E+2;-1.140100E+3
1.744050E+4;9.527940E+2;-1.176840E+3
1.613971E+4;1.020310E+3;-1.212360E+3
1.493594E+4;1.090850E+3;-1.246380E+3
1.382195E+4;1.164110E+3;-1.278810E+3
1.279105E+4;1.240180E+3;-1.309170E+3
1.183704E+4;1.319150E+3;-1.337780E+3
1.095418E+4;1.400120E+3;-1.363690E+3
1.013717E+4;1.483230E+3;-1.387030E+3
9.381096E+3;1.568220E+3;-1.407650E+3
8.681413E+3;1.654950E+3;-1.425470E+3
8.033915E+3;1.742990E+3;-1.440250E+3
7.434711E+3;1.832130E+3;-1.451960E+3
6.880198E+3;1.922060E+3;-1.460530E+3
6.367042E+3;2.012490E+3;-1.465910E+3
5.892161E+3;2.103140E+3;-1.468130E+3
5.452698E+3;2.193660E+3;-1.467160E+3
5.046012E+3;2.283780E+3;-1.463040E+3
4.669658E+3;2.373310E+3;-1.455930E+3
4.321375E+3;2.461860E+3;-1.445810E+3
3.999068E+3;2.549230E+3;-1.432880E+3
3.700800E+3;2.635220E+3;-1.417230E+3
3.424778E+3;2.719680E+3;-1.399050E+3
3.169343E+3;2.802190E+3;-1.378450E+3
2.932960E+3;2.882720E+3;-1.355620E+3
2.714207E+3;2.961160E+3;-1.330770E+3
2.511769E+3;3.037320E+3;-1.304060E+3
2.324431E+3;3.111040E+3;-1.275670E+3
2.151064E+3;3.182350E+3;-1.245820E+3
1.990629E+3;3.251140E+3;-1.214680E+3
1.842159E+3;3.317310E+3;-1.182450E+3
1.704763E+3;3.380860E+3;-1.149280E+3
1.577614E+3;3.441780E+3;-1.115390E+3
1.459949E+3;3.500080E+3;-1.080880E+3
1.351059E+3;3.555580E+3;-1.045970E+3
1.250291E+3;3.608600E+3;-1.010800E+3
1.157039E+3;3.659010E+3;-9.754790E+2
1.070742E+3;3.706880E+3;-9.402220E+2
9.908816E+2;3.752260E+3;-9.050920E+2
9.169773E+2;3.795190E+3;-8.701850E+2
8.485852E+2;3.835720E+3;-8.356370E+2
7.852940E+2;3.874000E+3;-8.016180E+2
7.267233E+2;3.910040E+3;-7.680990E+2
6.725211E+2;3.943990E+3;-7.351810E+2
6.223616E+2;3.975950E+3;-7.030160E+2
5.759431E+2;4.005940E+3;-6.715380E+2
5.329868E+2;4.033880E+3;-6.408070E+2
4.932343E+2;4.060080E+3;-6.110710E+2
4.564467E+2;4.084710E+3;-5.821780E+2
4.224029E+2;4.107650E+3;-5.540480E+2
3.908983E+2;4.128920E+3;-5.269750E+2
3.617434E+2;4.148870E+3;-5.007940E+2
3.347630E+2;4.167340E+3;-4.755930E+2
3.097949E+2;4.184610E+3;-4.513680E+2
2.866891E+2;4.200740E+3;-4.278400E+2
2.653065E+2;4.215600E+3;-4.054600E+2
2.455188E+2;4.229400E+3;-3.839630E+2
2.272069E+2;4.242240E+3;-3.636870E+2
2.102609E+2;4.254170E+3;-3.438780E+2
1.945787E+2;4.265330E+3;-3.251290E+2
1.800662E+2;4.275440E+3;-3.075610E+2
1.666360E+2;4.284980E+3;-2.906190E+2
1.542076E+2;4.293810E+3;-2.741010E+2
1.427061E+2;4.302280E+3;-2.587200E+2
1.320625E+2;4.309460E+3;-2.440370E+2
1.222127E+2;4.316380E+3;-2.304370E+2
1.130975E+2;4.322480E+3;-2.170670E+2
1.046622E+2;4.328240E+3;-2.047310E+2
9.685606E+1;4.333980E+3;-1.930390E+2
8.963211E+1;4.339090E+3;-1.815560E+2
8.294696E+1;4.343550E+3;-1.708280E+2
7.676041E+1;4.348340E+3;-1.608560E+2
7.103528E+1;4.351980E+3;-1.511700E+2
6.573716E+1;4.355540E+3;-1.427720E+2
6.083420E+1;4.359220E+3;-1.341170E+2
5.629692E+1;4.362200E+3;-1.258340E+2
5.209805E+1;4.365410E+3;-1.185150E+2
4.821235E+1;4.368500E+3;-1.111980E+2
4.461646E+1;4.370720E+3;-1.048800E+2
4.128877E+1;4.373320E+3;-9.839630E+1
3.820927E+1;4.375200E+3;-9.261290E+1
3.535946E+1;4.377270E+3;-8.700770E+1
3.272220E+1;4.379500E+3;-8.209080E+1
3.028163E+1;4.380820E+3;-7.694930E+1
2.802310E+1;4.382520E+3;-7.226410E+1
2.593301E+1;4.383920E+3;-6.749360E+1
2.399882E+1;4.385130E+3;-6.381250E+1
2.220888E+1;4.386220E+3;-5.983570E+1
2.055244E+1;4.387240E+3;-5.631570E+1
1.901955E+1;4.388250E+3;-5.287830E+1
1.760099E+1;4.388940E+3;-4.959010E+1
1.628823E+1;4.390050E+3;-4.667030E+1
1.507339E+1;4.390850E+3;-4.383860E+1
1.394915E+1;4.391500E+3;-4.118980E+1
1.290876E+1;4.392330E+3;-3.879580E+1
1.194597E+1;4.393010E+3;-3.625440E+1
1.105498E+1;4.393410E+3;-3.404510E+1
1.023046E+1;4.394000E+3;-3.214190E+1
9.467424E+0;4.394630E+3;-3.012780E+1
8.761302E+0;4.395100E+3;-2.827180E+1
8.107846E+0;4.395800E+3;-2.671370E+1
7.503127E+0;4.395930E+3;-2.494170E+1
6.943511E+0;4.396340E+3;-2.329410E+1
6.425634E+0;4.396940E+3;-2.196330E+1
5.946382E+0;4.396840E+3;-2.118770E+1
5.502875E+0;4.397620E+3;-1.949270E+1
5.092447E+0;4.397770E+3;-1.810900E+1
4.712630E+0;4.398220E+3;-1.710430E+1
4.361141E+0;4.398360E+3;-1.631500E+1
4.035868E+0;4.398780E+3;-1.522110E+1
3.734856E+0;4.398810E+3;-1.432780E+1
3.456294E+0;4.399080E+3;-1.342840E+1
3.198508E+0;4.399140E+3;-1.289040E+1
2.959950E+0;4.399320E+3;-1.203890E+1
2.739184E+0;4.399550E+3;-1.131020E+1
2.534883E+0;4.399780E+3;-1.083370E+1
2.345821E+0;4.400190E+3;-1.011890E+1
2.170859E+0;4.400200E+3;-9.875820E+0
2.008947E+0;4.400110E+3;-8.993000E+0
1.859111E+0;4.400330E+3;-8.598740E+0
1.720450E+0;4.400230E+3;-7.787300E+0
1.592132E+0;4.400150E+3;-7.601810E+0
1.473384E+0;4.400230E+3;-6.887450E+0
1.363492E+0;4.400210E+3;-6.469890E+0
1.261797E+0;4.400330E+3;-6.357190E+0
1.167687E+0;4.400630E+3;-5.919050E+0
1.080595E+0;4.400330E+3;-5.775960E+0
1.000000E+0;4.400160E+3;-5.589800E+0
Freq /Hz, Zr , Zi ; Name: 50_80
5.000000E+6;8.858640E+0;-1.551910E+1
4.627078E+6;9.152400E+0;-1.668910E+1
4.281971E+6;9.468950E+0;-1.793970E+1
3.962602E+6;9.812870E+0;-1.926440E+1
3.667054E+6;1.018370E+1;-2.066860E+1
3.393549E+6;1.058760E+1;-2.215620E+1
3.140444E+6;1.102370E+1;-2.373310E+1
2.906216E+6;1.149470E+1;-2.540610E+1
2.689457E+6;1.199840E+1;-2.718180E+1
2.488866E+6;1.254820E+1;-2.906080E+1
2.303236E+6;1.313630E+1;-3.105640E+1
2.131450E+6;1.376890E+1;-3.317430E+1
1.972477E+6;1.444800E+1;-3.542140E+1
1.825361E+6;1.517580E+1;-3.780530E+1
1.689218E+6;1.595460E+1;-4.033290E+1
1.563229E+6;1.678660E+1;-4.301920E+1
1.446636E+6;1.767490E+1;-4.586910E+1
1.338740E+6;1.862240E+1;-4.889550E+1
1.238891E+6;1.963460E+1;-5.211290E+1
1.146489E+6;2.071120E+1;-5.552840E+1
1.060979E+6;2.185840E+1;-5.916310E+1
9.818463E+5;2.308000E+1;-6.303020E+1
9.086159E+5;2.437730E+1;-6.713530E+1
8.408474E+5;2.576260E+1;-7.150920E+1
7.781333E+5;2.723330E+1;-7.616770E+1
7.200968E+5;2.880510E+1;-8.113020E+1
6.663888E+5;3.047920E+1;-8.641260E+1
6.166866E+5;3.226360E+1;-9.204120E+1
5.706914E+5;3.417350E+1;-9.804600E+1
5.281268E+5;3.621760E+1;-1.044460E+2
4.887368E+5;3.840500E+1;-1.112690E+2
4.522847E+5;4.076000E+1;-1.185470E+2
4.185513E+5;4.329150E+1;-1.263140E+2
3.873339E+5;4.601250E+1;-1.345850E+2
3.584449E+5;4.897760E+1;-1.435000E+2
3.317105E+5;5.216100E+1;-1.529170E+2
3.069701E+5;5.560430E+1;-1.629410E+2
2.840749E+5;5.934380E+1;-1.736290E+2
2.628874E+5;6.340320E+1;-1.850080E+2
2.432801E+5;6.782290E+1;-1.971180E+2
2.251352E+5;7.263510E+1;-2.099980E+2
2.083436E+5;7.788180E+1;-2.236910E+2
1.928044E+5;8.361290E+1;-2.382360E+2
1.784242E+5;8.987270E+1;-2.536750E+2
1.651166E+5;9.671700E+1;-2.700550E+2
1.528015E+5;1.042060E+2;-2.874000E+2
1.414049E+5;1.123960E+2;-3.057580E+2
1.308583E+5;1.213600E+2;-3.251700E+2
1.210983E+5;1.311680E+2;-3.456680E+2
1.120663E+5;1.419140E+2;-3.672830E+2
1.037079E+5;1.536620E+2;-3.900500E+2
9.597288E+4;1.665150E+2;-4.139990E+2
8.881481E+4;1.805530E+2;-4.391200E+2
8.219061E+4;1.958920E+2;-4.654530E+2
7.606048E+4;2.126310E+2;-4.930280E+2
7.038756E+4;2.308870E+2;-5.218140E+2
6.513774E+4;2.507870E+2;-5.518150E+2
6.027949E+4;2.724290E+2;-5.830080E+2
5.578358E+4;2.959210E+2;-6.153640E+2
5.162300E+4;3.214500E+2;-6.488720E+2
4.777273E+4;3.491030E+2;-6.834720E+2
4.420963E+4;3.790020E+2;-7.190410E+2
4.091228E+4;4.112880E+2;-7.555830E+2
3.786087E+4;4.460780E+2;-7.929620E+2
3.503704E+4;4.835000E+2;-8.310220E+2
3.242382E+4;5.236600E+2;-8.697440E+2
3.000551E+4;5.666730E+2;-9.088940E+2
2.776757E+4;6.126180E+2;-9.483230E+2
2.569654E+4;6.616040E+2;-9.878740E+2
2.377998E+4;7.136450E+2;-1.027340E+3
2.200637E+4;7.687820E+2;-1.066500E+3
2.036504E+4;8.270800E+2;-1.105140E+3
1.884612E+4;8.886130E+2;-1.143090E+3
1.744050E+4;9.531560E+2;-1.180060E+3
1.613971E+4;1.021070E+3;-1.216230E+3
1.493594E+4;1.091700E+3;-1.250530E+3
1.382195E+4;1.165220E+3;-1.283140E+3
1.279105E+4;1.241490E+3;-1.313850E+3
1.183704E+4;1.320320E+3;-1.342390E+3
1.095418E+4;1.401550E+3;-1.368590E+3
1.013717E+4;1.484910E+3;-1.392200E+3
9.381096E+3;1.570200E+3;-1.413110E+3
8.681413E+3;1.657190E+3;-1.431150E+3
8.033915E+3;1.745600E+3;-1.446240E+3
7.434711E+3;1.835090E+3;-1.458210E+3
6.880198E+3;1.925360E+3;-1.467000E+3
6.367042E+3;2.016210E+3;-1.472630E+3
5.892161E+3;2.107280E+3;-1.475080E+3
5.452698E+3;2.198250E+3;-1.474310E+3
5.046012E+3;2.288800E+3;-1.470380E+3
4.669658E+3;2.378800E+3;-1.463450E+3
4.321375E+3;2.467810E+3;-1.453480E+3
3.999068E+3;2.555650E+3;-1.440670E+3
3.700800E+3;2.642180E+3;-1.425160E+3
3.424778E+3;2.727110E+3;-1.407080E+3
3.169343E+3;2.810130E+3;-1.386550E+3
2.932960E+3;2.891170E+3;-1.363770E+3
2.714207E+3;2.970150E+3;-1.338970E+3
2.511769E+3;3.046810E+3;-1.312280E+3
2.324431E+3;3.121080E+3;-1.283880E+3
2.151064E+3;3.192900E+3;-1.254030E+3
1.990629E+3;3.262140E+3;-1.222830E+3
1.842159E+3;3.328880E+3;-1.190560E+3
1.704763E+3;3.392870E+3;-1.157300E+3
1.577614E+3;3.454310E+3;-1.123300E+3
1.459949E+3;3.513000E+3;-1.088710E+3
1.351059E+3;3.569050E+3;-1.053690E+3
1.250291E+3;3.622480E+3;-1.018370E+3
1.157039E+3;3.673310E+3;-9.829720E+2
1.070742E+3;3.721620E+3;-9.475400E+2
9.908816E+2;3.767440E+3;-9.122390E+2
9.169773E+2;3.810750E+3;-8.771900E+2
8.485852E+2;3.851590E+3;-8.424580E+2
7.852940E+2;3.890260E+3;-8.082350E+2
7.267233E+2;3.926640E+3;-7.745070E+2
6.725211E+2;3.960830E+3;-7.414320E+2
6.223616E+2;3.993080E+3;-7.090190E+2
5.759431E+2;4.023300E+3;-6.773600E+2
5.329868E+2;4.051600E+3;-6.465000E+2
4.932343E+2;4.077980E+3;-6.165500E+2
4.564467E+2;4.102820E+3;-5.873560E+2
4.224029E+2;4.125960E+3;-5.591080E+2
3.908983E+2;4.147480E+3;-5.317890E+2
3.617434E+2;4.167620E+3;-5.054350E+2
3.347630E+2;4.186380E+3;-4.800900E+2
3.097949E+2;4.203780E+3;-4.554820E+2
2.866891E+2;4.219930E+3;-4.321110E+2
2.653065E+2;4.235050E+3;-4.095520E+2
2.455188E+2;4.248910E+3;-3.878010E+2
2.272069E+2;4.262040E+3;-3.673280E+2
2.102609E+2;4.273870E+3;-3.473870E+2
1.945787E+2;4.284980E+3;-3.285040E+2
1.800662E+2;4.295360E+3;-3.107050E+2
1.666360E+2;4.304780E+3;-2.934040E+2
1.542076E+2;4.314030E+3;-2.770000E+2
1.427061E+2;4.322010E+3;-2.614050E+2
1.320625E+2;4.329500E+3;-2.468230E+2
1.222127E+2;4.336610E+3;-2.326230E+2
1.130975E+2;4.343070E+3;-2.194390E+2
1.046622E+2;4.349120E+3;-2.064550E+2
9.685606E+1;4.354860E+3;-1.950680E+2
8.963211E+1;4.359980E+3;-1.835410E+2
8.294696E+1;4.364710E+3;-1.727050E+2
7.676041E+1;4.369240E+3;-1.625030E+2
7.103528E+1;4.373190E+3;-1.534040E+2
6.573716E+1;4.376870E+3;-1.439740E+2
6.083420E+1;4.380720E+3;-1.355700E+2
5.629692E+1;4.384230E+3;-1.275900E+2
5.209805E+1;4.386950E+3;-1.200900E+2
4.821235E+1;4.389310E+3;-1.127760E+2
4.461646E+1;4.392030E+3;-1.060480E+2
4.128877E+1;4.394190E+3;-9.995100E+1
3.820927E+1;4.396520E+3;-9.368240E+1
3.535946E+1;4.398460E+3;-8.813190E+1
3.272220E+1;4.400730E+3;-8.280520E+1
3.028163E+1;4.402050E+3;-7.785210E+1
2.802310E+1;4.403620E+3;-7.305190E+1
2.593301E+1;4.405120E+3;-6.845000E+1
2.399882E+1;4.406260E+3;-6.449670E+1
2.220888E+1;4.407390E+3;-6.068150E+1
2.055244E+1;4.408400E+3;-5.697290E+1
1.901955E+1;4.409550E+3;-5.347460E+1
1.760099E+1;4.410340E+3;-5.018070E+1
1.628823E+1;4.411130E+3;-4.728320E+1
1.507339E+1;4.411760E+3;-4.432330E+1
1.394915E+1;4.412040E+3;-4.164380E+1
1.290876E+1;4.412680E+3;-3.892400E+1
1.194597E+1;4.413440E+3;-3.672140E+1
1.105498E+1;4.414000E+3;-3.433580E+1
1.023046E+1;4.414400E+3;-3.246420E+1
9.467424E+0;4.415220E+3;-3.061350E+1
8.761302E+0;4.415850E+3;-2.872840E+1
8.107846E+0;4.416120E+3;-2.692090E+1
7.503127E+0;4.416830E+3;-2.525300E+1
6.943511E+0;4.417240E+3;-2.392330E+1
6.425634E+0;4.417620E+3;-2.229380E+1
5.946382E+0;4.417630E+3;-2.119040E+1
5.502875E+0;4.417970E+3;-1.989900E+1
5.092447E+0;4.418190E+3;-1.862550E+1
4.712630E+0;4.418440E+3;-1.764880E+1
4.361141E+0;4.418840E+3;-1.635950E+1
4.035868E+0;4.419040E+3;-1.563070E+1
3.734856E+0;4.419110E+3;-1.453520E+1
3.456294E+0;4.419430E+3;-1.354830E+1
3.198508E+0;4.419710E+3;-1.286240E+1
2.959950E+0;4.419360E+3;-1.221660E+1
2.739184E+0;4.419780E+3;-1.139420E+1
2.534883E+0;4.419840E+3;-1.101240E+1
2.345821E+0;4.420050E+3;-9.879410E+0
2.170859E+0;4.420050E+3;-9.506800E+0
2.008947E+0;4.419970E+3;-9.151330E+0
1.859111E+0;4.419990E+3;-8.698920E+0
1.720450E+0;4.420400E+3;-8.073100E+0
1.592132E+0;4.420280E+3;-7.852930E+0
1.473384E+0;4.420500E+3;-7.088460E+0
1.363492E+0;4.420630E+3;-6.678320E+0
1.261797E+0;4.421040E+3;-6.593990E+0
1.167687E+0;4.420970E+3;-5.818170E+0
1.080595E+0;4.421030E+3;-5.888460E+0
1.000000E+0;4.420560E+3;-5.237340E+0
Freq /Hz, Zr , Zi ; Name: 50_40
5.000000E+6;8.860560E+0;-1.551990E+1
4.627078E+6;9.154440E+0;-1.668890E+1
4.281971E+6;9.471010E+0;-1.794060E+1
3.962602E+6;9.814690E+0;-1.926540E+1
3.667054E+6;1.018620E+1;-2.066790E+1
3.393549E+6;1.059060E+1;-2.215660E+1
3.140444E+6;1.102530E+1;-2.373330E+1
2.906216E+6;1.149740E+1;-2.540760E+1
2.689457E+6;1.199960E+1;-2.718340E+1
2.488866E+6;1.254980E+1;-2.905990E+1
2.303236E+6;1.313900E+1;-3.105820E+1
2.131450E+6;1.377120E+1;-3.317660E+1
1.972477E+6;1.444930E+1;-3.542180E+1
1.825361E+6;1.517680E+1;-3.780760E+1
1.689218E+6;1.595500E+1;-4.033610E+1
1.563229E+6;1.678640E+1;-4.301960E+1
1.446636E+6;1.767540E+1;-4.587260E+1
1.338740E+6;1.862540E+1;-4.890380E+1
1.238891E+6;1.963440E+1;-5.211980E+1
1.146489E+6;2.071040E+1;-5.553490E+1
1.060979E+6;2.185750E+1;-5.917180E+1
9.818463E+5;2.307820E+1;-6.303590E+1
9.086159E+5;2.437730E+1;-6.714420E+1
8.408474E+5;2.576000E+1;-7.152250E+1
7.781333E+5;2.723480E+1;-7.618300E+1
7.200968E+5;2.880290E+1;-8.114270E+1
6.663888E+5;3.047410E+1;-8.642620E+1
6.166866E+5;3.226130E+1;-9.206280E+1
5.706914E+5;3.416960E+1;-9.806050E+1
5.281268E+5;3.621130E+1;-1.044650E+2
4.887368E+5;3.840350E+1;-1.112950E+2
4.522847E+5;4.075420E+1;-1.185730E+2
4.185513E+5;4.328630E+1;-1.263440E+2
3.873339E+5;4.600740E+1;-1.346220E+2
3.584449E+5;4.896990E+1;-1.435320E+2
3.317105E+5;5.215210E+1;-1.529520E+2
3.069701E+5;5.559600E+1;-1.629810E+2
2.840749E+5;5.933350E+1;-1.736750E+2
2.628874E+5;6.339220E+1;-1.850610E+2
2.432801E+5;6.780910E+1;-1.971740E+2
2.251352E+5;7.261790E+1;-2.100570E+2
2.083436E+5;7.786520E+1;-2.237560E+2
1.928044E+5;8.359120E+1;-2.383080E+2
1.784242E+5;8.984750E+1;-2.537570E+2
1.651166E+5;9.669080E+1;-2.701410E+2
1.528015E+5;1.041700E+2;-2.874930E+2
1.414049E+5;1.123590E+2;-3.058610E+2
1.308583E+5;1.213180E+2;-3.252840E+2
1.210983E+5;1.311290E+2;-3.457980E+2
1.120663E+5;1.418630E+2;-3.674400E+2
1.037079E+5;1.536190E+2;-3.902250E+2
9.597288E+4;1.664520E+2;-4.141740E+2
8.881481E+4;1.804890E+2;-4.393140E+2
8.219061E+4;1.958310E+2;-4.656860E+2
7.606048E+4;2.125620E+2;-4.932800E+2
7.038756E+4;2.308170E+2;-5.220790E+2
6.513774E+4;2.506890E+2;-5.520990E+2
6.027949E+4;2.723500E+2;-5.833490E+2
5.578358E+4;2.958570E+2;-6.157380E+2
5.162300E+4;3.213870E+2;-6.493310E+2
4.777273E+4;3.490300E+2;-6.839360E+2
4.420963E+4;3.789580E+2;-7.195620E+2
4.091228E+4;4.112330E+2;-7.561340E+2
3.786087E+4;4.460390E+2;-7.935520E+2
3.503704E+4;4.834970E+2;-8.316930E+2
3.242382E+4;5.236840E+2;-8.704550E+2
3.000551E+4;5.667000E+2;-9.096610E+2
2.776757E+4;6.126550E+2;-9.491470E+2
2.569654E+4;6.616500E+2;-9.887610E+2
2.377998E+4;7.137180E+2;-1.028250E+3
2.200637E+4;7.691640E+2;-1.067870E+3
2.036504E+4;8.275260E+2;-1.106620E+3
1.884612E+4;8.890490E+2;-1.144630E+3
1.744050E+4;9.537230E+2;-1.181710E+3
1.613971E+4;1.021420E+3;-1.217520E+3
1.493594E+4;1.092160E+3;-1.251920E+3
1.382195E+4;1.165750E+3;-1.284600E+3
1.279105E+4;1.242110E+3;-1.315380E+3
1.183704E+4;1.321030E+3;-1.343980E+3
1.095418E+4;1.402370E+3;-1.370240E+3
1.013717E+4;1.485840E+3;-1.393930E+3
9.381096E+3;1.571250E+3;-1.414890E+3
8.681413E+3;1.658390E+3;-1.433030E+3
8.033915E+3;1.746900E+3;-1.448130E+3
7.434711E+3;1.836520E+3;-1.460130E+3
6.880198E+3;1.926970E+3;-1.468980E+3
6.367042E+3;2.017950E+3;-1.474630E+3
5.892161E+3;2.109120E+3;-1.477040E+3
5.452698E+3;2.200250E+3;-1.476310E+3
5.046012E+3;2.290970E+3;-1.472380E+3
4.669658E+3;2.381080E+3;-1.465400E+3
4.321375E+3;2.470220E+3;-1.455420E+3
3.999068E+3;2.558160E+3;-1.442550E+3
3.700800E+3;2.644770E+3;-1.427000E+3
3.424778E+3;2.729840E+3;-1.408890E+3
3.169343E+3;2.812980E+3;-1.388310E+3
2.932960E+3;2.894150E+3;-1.365510E+3
2.714207E+3;2.973230E+3;-1.340660E+3
2.511769E+3;3.049960E+3;-1.313880E+3
2.324431E+3;3.124250E+3;-1.285440E+3
2.151064E+3;3.196170E+3;-1.255520E+3
1.990629E+3;3.265470E+3;-1.224280E+3
1.842159E+3;3.332280E+3;-1.191980E+3
1.704763E+3;3.396430E+3;-1.158680E+3
1.577614E+3;3.457910E+3;-1.124680E+3
1.459949E+3;3.516720E+3;-1.090040E+3
1.351059E+3;3.572780E+3;-1.054950E+3
1.250291E+3;3.626300E+3;-1.019620E+3
1.157039E+3;3.677270E+3;-9.841950E+2
1.070742E+3;3.725640E+3;-9.487400E+2
9.908816E+2;3.771470E+3;-9.134060E+2
9.169773E+2;3.814860E+3;-8.783460E+2
8.485852E+2;3.855850E+3;-8.436010E+2
7.852940E+2;3.894540E+3;-8.093330E+2
7.267233E+2;3.931010E+3;-7.756300E+2
6.725211E+2;3.965270E+3;-7.424890E+2
6.223616E+2;3.997610E+3;-7.101030E+2
5.759431E+2;4.027840E+3;-6.784330E+2
5.329868E+2;4.056170E+3;-6.475170E+2
4.932343E+2;4.082680E+3;-6.175010E+2
4.564467E+2;4.107510E+3;-5.883270E+2
4.224029E+2;4.130670E+3;-5.600530E+2
3.908983E+2;4.152220E+3;-5.327410E+2
3.617434E+2;4.172430E+3;-5.063560E+2
3.347630E+2;4.191260E+3;-4.809110E+2
3.097949E+2;4.208660E+3;-4.564390E+2
2.866891E+2;4.224920E+3;-4.329700E+2
2.653065E+2;4.240100E+3;-4.104000E+2
2.455188E+2;4.254130E+3;-3.887030E+2
2.272069E+2;4.267210E+3;-3.680490E+2
2.102609E+2;4.279170E+3;-3.482200E+2
1.945787E+2;4.290530E+3;-3.293420E+2
1.800662E+2;4.300820E+3;-3.113060E+2
1.666360E+2;4.310460E+3;-2.941660E+2
1.542076E+2;4.319480E+3;-2.777460E+2
1.427061E+2;4.327730E+3;-2.622040E+2
1.320625E+2;4.335330E+3;-2.473770E+2
1.222127E+2;4.342490E+3;-2.333330E+2
1.130975E+2;4.349030E+3;-2.200320E+2
1.046622E+2;4.355070E+3;-2.072600E+2
9.685606E+1;4.360930E+3;-1.955720E+2
8.963211E+1;4.365920E+3;-1.841430E+2
8.294696E+1;4.370780E+3;-1.733910E+2
7.676041E+1;4.375150E+3;-1.633220E+2
7.103528E+1;4.379030E+3;-1.536370E+2
6.573716E+1;4.382740E+3;-1.446280E+2
6.083420E+1;4.386370E+3;-1.360460E+2
5.629692E+1;4.389590E+3;-1.282400E+2
5.209805E+1;4.392630E+3;-1.203820E+2
4.821235E+1;4.395330E+3;-1.133680E+2
4.461646E+1;4.397950E+3;-1.065090E+2
4.128877E+1;4.400250E+3;-1.003490E+2
3.820927E+1;4.402530E+3;-9.409190E+1
3.535946E+1;4.404610E+3;-8.850350E+1
3.272220E+1;4.406380E+3;-8.315640E+1
3.028163E+1;4.408200E+3;-7.811700E+1
2.802310E+1;4.409740E+3;-7.337510E+1
2.593301E+1;4.411330E+3;-6.911580E+1
2.399882E+1;4.412490E+3;-6.481520E+1
2.220888E+1;4.413570E+3;-6.089060E+1
2.055244E+1;4.414540E+3;-5.718830E+1
1.901955E+1;4.415480E+3;-5.380540E+1
1.760099E+1;4.416530E+3;-5.040710E+1
1.628823E+1;4.417350E+3;-4.739530E+1
1.507339E+1;4.418130E+3;-4.450010E+1
1.394915E+1;4.418900E+3;-4.193960E+1
1.290876E+1;4.419610E+3;-3.931220E+1
1.194597E+1;4.420710E+3;-3.706600E+1
1.105498E+1;4.421290E+3;-3.470250E+1
1.023046E+1;4.421720E+3;-3.264640E+1
9.467424E+0;4.422300E+3;-3.045690E+1
8.761302E+0;4.423000E+3;-2.904440E+1
8.107846E+0;4.423790E+3;-2.706650E+1
7.503127E+0;4.423980E+3;-2.543800E+1
6.943511E+0;4.424950E+3;-2.395590E+1
6.425634E+0;4.425010E+3;-2.245220E+1
5.946382E+0;4.425470E+3;-2.117070E+1
5.502875E+0;4.425680E+3;-1.985280E+1
5.092447E+0;4.426190E+3;-1.866560E+1
4.712630E+0;4.426260E+3;-1.785960E+1
4.361141E+0;4.426720E+3;-1.678120E+1
4.035868E+0;4.427070E+3;-1.560280E+1
3.734856E+0;4.427290E+3;-1.478200E+1
3.456294E+0;4.427450E+3;-1.381240E+1
3.198508E+0;4.427620E+3;-1.312860E+1
2.959950E+0;4.427590E+3;-1.232770E+1
2.739184E+0;4.427920E+3;-1.163930E+1
2.534883E+0;4.427960E+3;-1.101140E+1
2.345821E+0;4.427680E+3;-1.022430E+1
2.170859E+0;4.428210E+3;-9.681840E+0
2.008947E+0;4.427940E+3;-9.312930E+0
1.859111E+0;4.428130E+3;-8.485530E+0
1.720450E+0;4.427870E+3;-8.114150E+0
1.592132E+0;4.427870E+3;-7.923080E+0
1.473384E+0;4.428090E+3;-7.089730E+0
1.363492E+0;4.427720E+3;-6.714630E+0
1.261797E+0;4.427780E+3;-6.596750E+0
1.167687E+0;4.427420E+3;-6.173250E+0
1.080595E+0;4.427570E+3;-5.667510E+0
1.000000E+0;4.427720E+3;-5.404710E+0
Freq /Hz, Zr , Zi ; Name: 50_20
5.000000E+6;8.861150E+0;-1.552260E+1
4.627078E+6;9.155090E+0;-1.669460E+1
4.281971E+6;9.471230E+0;-1.794600E+1
3.962602E+6;9.815080E+0;-1.927060E+1
3.667054E+6;1.018610E+1;-2.067600E+1
3.393549E+6;1.058970E+1;-2.216450E+1
3.140444E+6;1.102500E+1;-2.374330E+1
2.906216E+6;1.149590E+1;-2.541710E+1
2.689457E+6;1.199840E+1;-2.719450E+1
2.488866E+6;1.254880E+1;-2.907450E+1
2.303236E+6;1.313660E+1;-3.107050E+1
2.131450E+6;1.376910E+1;-3.319250E+1
1.972477E+6;1.444640E+1;-3.543850E+1
1.825361E+6;1.517410E+1;-3.782500E+1
1.689218E+6;1.595190E+1;-4.035420E+1
1.563229E+6;1.678380E+1;-4.304410E+1
1.446636E+6;1.767210E+1;-4.589760E+1
1.338740E+6;1.862070E+1;-4.892640E+1
1.238891E+6;1.963280E+1;-5.214580E+1
1.146489E+6;2.070730E+1;-5.556580E+1
1.060979E+6;2.185540E+1;-5.920410E+1
9.818463E+5;2.307640E+1;-6.307100E+1
9.086159E+5;2.437210E+1;-6.718010E+1
8.408474E+5;2.575510E+1;-7.156170E+1
7.781333E+5;2.723070E+1;-7.622340E+1
7.200968E+5;2.879920E+1;-8.118990E+1
6.663888E+5;3.046700E+1;-8.647210E+1
6.166866E+5;3.225710E+1;-9.211120E+1
5.706914E+5;3.416360E+1;-9.811920E+1
5.281268E+5;3.620550E+1;-1.045210E+2
4.887368E+5;3.839540E+1;-1.113600E+2
4.522847E+5;4.074640E+1;-1.186460E+2
4.185513E+5;4.327450E+1;-1.264170E+2
3.873339E+5;4.599270E+1;-1.346950E+2
3.584449E+5;4.895670E+1;-1.436160E+2
3.317105E+5;5.213630E+1;-1.530420E+2
3.069701E+5;5.557660E+1;-1.630790E+2
2.840749E+5;5.931110E+1;-1.737790E+2
2.628874E+5;6.336800E+1;-1.851790E+2
2.432801E+5;6.778000E+1;-1.973040E+2
2.251352E+5;7.258130E+1;-2.101910E+2
2.083436E+5;7.782170E+1;-2.239000E+2
1.928044E+5;8.354400E+1;-2.384720E+2
1.784242E+5;8.979460E+1;-2.539370E+2
1.651166E+5;9.662820E+1;-2.703440E+2
1.528015E+5;1.041020E+2;-2.877170E+2
1.414049E+5;1.122820E+2;-3.061100E+2
1.308583E+5;1.212290E+2;-3.255570E+2
1.210983E+5;1.310290E+2;-3.461100E+2
1.120663E+5;1.417590E+2;-3.677690E+2
1.037079E+5;1.534920E+2;-3.905900E+2
9.597288E+4;1.663200E+2;-4.145750E+2
8.881481E+4;1.803370E+2;-4.397640E+2
8.219061E+4;1.956590E+2;-4.661800E+2
7.606048E+4;2.123960E+2;-4.938360E+2
7.038756E+4;2.306270E+2;-5.226980E+2
6.513774E+4;2.504860E+2;-5.527980E+2
6.027949E+4;2.721310E+2;-5.841080E+2
5.578358E+4;2.956380E+2;-6.165890E+2
5.162300E+4;3.211300E+2;-6.502170E+2
4.777273E+4;3.487900E+2;-6.849530E+2
4.420963E+4;3.786930E+2;-7.206980E+2
4.091228E+4;4.109860E+2;-7.573910E+2
3.786087E+4;4.457910E+2;-7.949540E+2
3.503704E+4;4.832280E+2;-8.332040E+2
3.242382E+4;5.234470E+2;-8.721020E+2
3.000551E+4;5.664400E+2;-9.114470E+2
2.776757E+4;6.125240E+2;-9.511410E+2
2.569654E+4;6.617330E+2;-9.912900E+2
2.377998E+4;7.138790E+2;-1.031020E+3
2.200637E+4;7.691830E+2;-1.070510E+3
2.036504E+4;8.276600E+2;-1.109500E+3
1.884612E+4;8.892910E+2;-1.147760E+3
1.744050E+4;9.540650E+2;-1.185050E+3
1.613971E+4;1.021940E+3;-1.221150E+3
1.493594E+4;1.092820E+3;-1.255780E+3
1.382195E+4;1.166610E+3;-1.288730E+3
1.279105E+4;1.243180E+3;-1.319770E+3
1.183704E+4;1.322340E+3;-1.348640E+3
1.095418E+4;1.403930E+3;-1.375160E+3
1.013717E+4;1.487690E+3;-1.399090E+3
9.381096E+3;1.573450E+3;-1.420330E+3
8.681413E+3;1.660840E+3;-1.438630E+3
8.033915E+3;1.749750E+3;-1.453990E+3
7.434711E+3;1.839730E+3;-1.466210E+3
6.880198E+3;1.930550E+3;-1.475220E+3
6.367042E+3;2.021930E+3;-1.481040E+3
5.892161E+3;2.113510E+3;-1.483630E+3
5.452698E+3;2.205040E+3;-1.483000E+3
5.046012E+3;2.296210E+3;-1.479210E+3
4.669658E+3;2.386800E+3;-1.472340E+3
4.321375E+3;2.476470E+3;-1.462470E+3
3.999068E+3;2.564900E+3;-1.449660E+3
3.700800E+3;2.651980E+3;-1.434140E+3
3.424778E+3;2.737440E+3;-1.416010E+3
3.169343E+3;2.821030E+3;-1.395430E+3
2.932960E+3;2.902650E+3;-1.372570E+3
2.714207E+3;2.982240E+3;-1.347710E+3
2.511769E+3;3.059520E+3;-1.320930E+3
2.324431E+3;3.134310E+3;-1.292420E+3
2.151064E+3;3.206620E+3;-1.262390E+3
1.990629E+3;3.276390E+3;-1.231050E+3
1.842159E+3;3.343550E+3;-1.198590E+3
1.704763E+3;3.408120E+3;-1.165200E+3
1.577614E+3;3.469900E+3;-1.131010E+3
1.459949E+3;3.529100E+3;-1.096230E+3
1.351059E+3;3.585580E+3;-1.061000E+3
1.250291E+3;3.639450E+3;-1.025520E+3
1.157039E+3;3.690710E+3;-9.898970E+2
1.070742E+3;3.739300E+3;-9.542690E+2
9.908816E+2;3.785500E+3;-9.187720E+2
9.169773E+2;3.829140E+3;-8.835090E+2
8.485852E+2;3.870400E+3;-8.486190E+2
7.852940E+2;3.909280E+3;-8.141420E+2
7.267233E+2;3.945980E+3;-7.802530E+2
6.725211E+2;3.980430E+3;-7.469430E+2
6.223616E+2;4.012800E+3;-7.142870E+2
5.759431E+2;4.043180E+3;-6.824490E+2
5.329868E+2;4.071760E+3;-6.514010E+2
4.932343E+2;4.098390E+3;-6.212070E+2
4.564467E+2;4.123270E+3;-5.918540E+2
4.224029E+2;4.146600E+3;-5.634380E+2
3.908983E+2;4.168320E+3;-5.359320E+2
3.617434E+2;4.188550E+3;-5.094620E+2
3.347630E+2;4.207440E+3;-4.838300E+2
3.097949E+2;4.225120E+3;-4.592010E+2
2.866891E+2;4.241360E+3;-4.355230E+2
2.653065E+2;4.256570E+3;-4.129020E+2
2.455188E+2;4.270700E+3;-3.910830E+2
2.272069E+2;4.283750E+3;-3.703130E+2
2.102609E+2;4.295970E+3;-3.503500E+2
1.945787E+2;4.307010E+3;-3.313320E+2
1.800662E+2;4.317610E+3;-3.131780E+2
1.666360E+2;4.327290E+3;-2.958660E+2
1.542076E+2;4.336370E+3;-2.794690E+2
1.427061E+2;4.344570E+3;-2.637200E+2
1.320625E+2;4.352260E+3;-2.489580E+2
1.222127E+2;4.359400E+3;-2.348140E+2
1.130975E+2;4.365890E+3;-2.213590E+2
1.046622E+2;4.372100E+3;-2.085520E+2
9.685606E+1;4.377570E+3;-1.967210E+2
8.963211E+1;4.382860E+3;-1.853310E+2
8.294696E+1;4.387630E+3;-1.745110E+2
7.676041E+1;4.392060E+3;-1.643260E+2
7.103528E+1;4.396250E+3;-1.546590E+2
6.573716E+1;4.400050E+3;-1.455680E+2
6.083420E+1;4.403550E+3;-1.370440E+2
5.629692E+1;4.406880E+3;-1.290030E+2
5.209805E+1;4.409710E+3;-1.212470E+2
4.821235E+1;4.412570E+3;-1.140730E+2
4.461646E+1;4.415170E+3;-1.071970E+2
4.128877E+1;4.417340E+3;-1.007870E+2
3.820927E+1;4.419510E+3;-9.478180E+1
3.535946E+1;4.421480E+3;-8.909300E+1
3.272220E+1;4.423360E+3;-8.372940E+1
3.028163E+1;4.425110E+3;-7.864110E+1
2.802310E+1;4.426670E+3;-7.396810E+1
2.593301E+1;4.427930E+3;-6.939260E+1
2.399882E+1;4.429350E+3;-6.526790E+1
2.220888E+1;4.430490E+3;-6.134320E+1
2.055244E+1;4.431650E+3;-5.758560E+1
1.901955E+1;4.432600E+3;-5.424800E+1
1.760099E+1;4.433570E+3;-5.088800E+1
1.628823E+1;4.434830E+3;-4.775520E+1
1.507339E+1;4.436100E+3;-4.491360E+1
1.394915E+1;4.436880E+3;-4.218470E+1
1.290876E+1;4.437890E+3;-3.943380E+1
1.194597E+1;4.438340E+3;-3.717080E+1
1.105498E+1;4.439140E+3;-3.520310E+1
1.023046E+1;4.439740E+3;-3.278480E+1
9.467424E+0;4.440430E+3;-3.074330E+1
8.761302E+0;4.440900E+3;-2.909190E+1
8.107846E+0;4.441290E+3;-2.719720E+1
7.503127E+0;4.441790E+3;-2.564820E+1
6.943511E+0;4.441860E+3;-2.414870E+1
6.425634E+0;4.442410E+3;-2.286230E+1
5.946382E+0;4.442990E+3;-2.168270E+1
5.502875E+0;4.442970E+3;-2.013310E+1
5.092447E+0;4.443240E+3;-1.891710E+1
4.712630E+0;4.443890E+3;-1.805430E+1
4.361141E+0;4.444270E+3;-1.675060E+1
4.035868E+0;4.444180E+3;-1.582960E+1
3.734856E+0;4.444600E+3;-1.485110E+1
3.456294E+0;4.444620E+3;-1.398250E+1
3.198508E+0;4.444760E+3;-1.322290E+1
2.959950E+0;4.444970E+3;-1.249060E+1
2.739184E+0;4.444900E+3;-1.175400E+1
2.534883E+0;4.445010E+3;-1.093750E+1
2.345821E+0;4.444860E+3;-1.030150E+1
2.170859E+0;4.444970E+3;-9.626490E+0
2.008947E+0;4.444950E+3;-9.319600E+0
1.859111E+0;4.444970E+3;-8.823090E+0
1.720450E+0;4.444840E+3;-8.168630E+0
1.592132E+0;4.445080E+3;-7.766760E+0
1.473384E+0;4.444770E+3;-7.184780E+0
1.363492E+0;4.444810E+3;-6.903840E+0
1.261797E+0;4.444630E+3;-6.208070E+0
1.167687E+0;4.444350E+3;-6.386250E+0
1.080595E+0;4.444100E+3;-5.939030E+0
1.000000E+0;4.444200E+3;-5.444170E+0
Freq /Hz, Zr , Zi ; Name: 50
5.000000E+6;8.856040E+0;-1.552640E+1
4.627078E+6;9.149580E+0;-1.669850E+1
4.281971E+6;9.465900E+0;-1.795200E+1
3.962602E+6;9.808740E+0;-1.928070E+1
3.667054E+6;1.017950E+1;-2.068640E+1
3.393549E+6;1.058200E+1;-2.217650E+1
3.140444E+6;1.101670E+1;-2.375640E+1
2.906216E+6;1.148720E+1;-2.543410E+1
2.689457E+6;1.198950E+1;-2.721430E+1
2.488866E+6;1.253940E+1;-2.909400E+1
2.303236E+6;1.312660E+1;-3.109690E+1
2.131450E+6;1.375850E+1;-3.321870E+1
1.972477E+6;1.443560E+1;-3.546920E+1
1.825361E+6;1.516310E+1;-3.785880E+1
1.689218E+6;1.593960E+1;-4.039320E+1
1.563229E+6;1.677220E+1;-4.308590E+1
1.446636E+6;1.766040E+1;-4.594480E+1
1.338740E+6;1.860790E+1;-4.897650E+1
1.238891E+6;1.961930E+1;-5.220380E+1
1.146489E+6;2.069570E+1;-5.562830E+1
1.060979E+6;2.184200E+1;-5.927070E+1
9.818463E+5;2.306150E+1;-6.314480E+1
9.086159E+5;2.436090E+1;-6.726140E+1
8.408474E+5;2.574350E+1;-7.165170E+1
7.781333E+5;2.721630E+1;-7.632050E+1
7.200968E+5;2.878520E+1;-8.129450E+1
6.663888E+5;3.046100E+1;-8.662870E+1
6.166866E+5;3.223240E+1;-9.221790E+1
5.706914E+5;3.414190E+1;-9.823340E+1
5.281268E+5;3.618380E+1;-1.046500E+2
4.887368E+5;3.836860E+1;-1.114870E+2
4.522847E+5;4.071900E+1;-1.187840E+2
4.185513E+5;4.324820E+1;-1.265690E+2
3.873339E+5;4.596610E+1;-1.348650E+2
3.584449E+5;4.892240E+1;-1.437950E+2
3.317105E+5;5.209950E+1;-1.532380E+2
3.069701E+5;5.553440E+1;-1.632890E+2
2.840749E+5;5.926290E+1;-1.740070E+2
2.628874E+5;6.331250E+1;-1.854230E+2
2.432801E+5;6.771510E+1;-1.975670E+2
2.251352E+5;7.251150E+1;-2.104870E+2
2.083436E+5;7.774420E+1;-2.242260E+2
1.928044E+5;8.345230E+1;-2.388200E+2
1.784242E+5;8.969120E+1;-2.543240E+2
1.651166E+5;9.651020E+1;-2.707610E+2
1.528015E+5;1.039680E+2;-2.881750E+2
1.414049E+5;1.121300E+2;-3.066140E+2
1.308583E+5;1.210620E+2;-3.261100E+2
1.210983E+5;1.308400E+2;-3.467100E+2
1.120663E+5;1.415400E+2;-3.684470E+2
1.037079E+5;1.532560E+2;-3.913330E+2
9.597288E+4;1.660610E+2;-4.154090E+2
8.881481E+4;1.800560E+2;-4.406880E+2
8.219061E+4;1.953520E+2;-4.671940E+2
7.606048E+4;2.120580E+2;-4.949620E+2
7.038756E+4;2.302740E+2;-5.239480E+2
6.513774E+4;2.501210E+2;-5.541820E+2
6.027949E+4;2.717390E+2;-5.856400E+2
5.578358E+4;2.952180E+2;-6.182940E+2
5.162300E+4;3.207070E+2;-6.521030E+2
4.777273E+4;3.483460E+2;-6.870340E+2
4.420963E+4;3.782510E+2;-7.229890E+2
4.091228E+4;4.105520E+2;-7.599400E+2
3.786087E+4;4.453700E+2;-7.977320E+2
3.503704E+4;4.828480E+2;-8.362860E+2
3.242382E+4;5.230610E+2;-8.754600E+2
3.000551E+4;5.663360E+2;-9.154680E+2
2.776757E+4;6.124330E+2;-9.555030E+2
2.569654E+4;6.615790E+2;-9.956870E+2
2.377998E+4;7.138480E+2;-1.035820E+3
2.200637E+4;7.692790E+2;-1.075700E+3
2.036504E+4;8.279160E+2;-1.115120E+3
1.884612E+4;8.897530E+2;-1.153830E+3
1.744050E+4;9.547810E+2;-1.191610E+3
1.613971E+4;1.022930E+3;-1.228190E+3
1.493594E+4;1.094110E+3;-1.263310E+3
1.382195E+4;1.168250E+3;-1.296770E+3
1.279105E+4;1.245220E+3;-1.328310E+3
1.183704E+4;1.324810E+3;-1.357680E+3
1.095418E+4;1.406910E+3;-1.384740E+3
1.013717E+4;1.491190E+3;-1.409160E+3
9.381096E+3;1.577530E+3;-1.430890E+3
8.681413E+3;1.665540E+3;-1.449660E+3
8.033915E+3;1.755120E+3;-1.465490E+3
7.434711E+3;1.845840E+3;-1.478170E+3
6.880198E+3;1.937450E+3;-1.487620E+3
6.367042E+3;2.029610E+3;-1.493820E+3
5.892161E+3;2.122030E+3;-1.496750E+3
5.452698E+3;2.214420E+3;-1.496440E+3
5.046012E+3;2.306550E+3;-1.492970E+3
4.669658E+3;2.398000E+3;-1.486310E+3
4.321375E+3;2.488610E+3;-1.476650E+3
3.999068E+3;2.577900E+3;-1.463940E+3
3.700800E+3;2.665940E+3;-1.448520E+3
3.424778E+3;2.752340E+3;-1.430450E+3
3.169343E+3;2.836880E+3;-1.409870E+3
2.932960E+3;2.919460E+3;-1.387020E+3
2.714207E+3;2.999920E+3;-1.362060E+3
2.511769E+3;3.078150E+3;-1.335200E+3
2.324431E+3;3.153820E+3;-1.306540E+3
2.151064E+3;3.227020E+3;-1.276330E+3
1.990629E+3;3.297600E+3;-1.244790E+3
1.842159E+3;3.365630E+3;-1.212100E+3
1.704763E+3;3.430920E+3;-1.178430E+3
1.577614E+3;3.493520E+3;-1.143960E+3
1.459949E+3;3.553430E+3;-1.108890E+3
1.351059E+3;3.610640E+3;-1.073350E+3
1.250291E+3;3.665140E+3;-1.037500E+3
1.157039E+3;3.717000E+3;-1.001550E+3
1.070742E+3;3.766260E+3;-9.655460E+2
9.908816E+2;3.812980E+3;-9.297110E+2
9.169773E+2;3.857210E+3;-8.941050E+2
8.485852E+2;3.898950E+3;-8.588110E+2
7.852940E+2;3.938350E+3;-8.239900E+2
7.267233E+2;3.975530E+3;-7.897520E+2
6.725211E+2;4.010450E+3;-7.560520E+2
6.223616E+2;4.043300E+3;-7.231130E+2
5.759431E+2;4.074170E+3;-6.909230E+2
5.329868E+2;4.103030E+3;-6.595020E+2
4.932343E+2;4.130080E+3;-6.289860E+2
4.564467E+2;4.155420E+3;-5.993040E+2
4.224029E+2;4.179030E+3;-5.705600E+2
3.908983E+2;4.201100E+3;-5.427920E+2
3.617434E+2;4.221600E+3;-5.159480E+2
3.347630E+2;4.240800E+3;-4.900760E+2
3.097949E+2;4.258670E+3;-4.651700E+2
2.866891E+2;4.275240E+3;-4.412050E+2
2.653065E+2;4.290520E+3;-4.182110E+2
2.455188E+2;4.305000E+3;-3.962370E+2
2.272069E+2;4.318240E+3;-3.751010E+2
2.102609E+2;4.330570E+3;-3.549850E+2
1.945787E+2;4.341830E+3;-3.357180E+2
1.800662E+2;4.352360E+3;-3.173100E+2
1.666360E+2;4.362240E+3;-2.998480E+2
1.542076E+2;4.371260E+3;-2.831370E+2
1.427061E+2;4.379690E+3;-2.672370E+2
1.320625E+2;4.387440E+3;-2.521920E+2
1.222127E+2;4.394670E+3;-2.379870E+2
1.130975E+2;4.401360E+3;-2.243880E+2
1.046622E+2;4.407390E+3;-2.114520E+2
9.685606E+1;4.413160E+3;-1.993200E+2
8.963211E+1;4.418350E+3;-1.878440E+2
8.294696E+1;4.423410E+3;-1.768610E+2
7.676041E+1;4.427630E+3;-1.665860E+2
7.103528E+1;4.431830E+3;-1.567880E+2
6.573716E+1;4.435690E+3;-1.476180E+2
6.083420E+1;4.439270E+3;-1.388220E+2
5.629692E+1;4.442480E+3;-1.306190E+2
5.209805E+1;4.445390E+3;-1.228830E+2
4.821235E+1;4.448200E+3;-1.155190E+2
4.461646E+1;4.450820E+3;-1.087190E+2
4.128877E+1;4.453210E+3;-1.022300E+2
3.820927E+1;4.455430E+3;-9.604730E+1
3.535946E+1;4.457380E+3;-9.036580E+1
3.272220E+1;4.459150E+3;-8.495510E+1
3.028163E+1;4.460960E+3;-7.978360E+1
2.802310E+1;4.462530E+3;-7.492640E+1
2.593301E+1;4.464090E+3;-7.046320E+1
2.399882E+1;4.465360E+3;-6.623790E+1
2.220888E+1;4.466610E+3;-6.216950E+1
2.055244E+1;4.467870E+3;-5.848040E+1
1.901955E+1;4.468980E+3;-5.483370E+1
1.760099E+1;4.469980E+3;-5.161580E+1
1.628823E+1;4.470660E+3;-4.850540E+1
1.507339E+1;4.471050E+3;-4.562030E+1
1.394915E+1;4.471640E+3;-4.281920E+1
1.290876E+1;4.472290E+3;-4.004390E+1
1.194597E+1;4.472930E+3;-3.782650E+1
1.105498E+1;4.473730E+3;-3.553010E+1
1.023046E+1;4.474370E+3;-3.331260E+1
9.467424E+0;4.474780E+3;-3.133140E+1
8.761302E+0;4.475400E+3;-2.969250E+1
8.107846E+0;4.475750E+3;-2.759650E+1
7.503127E+0;4.476390E+3;-2.614170E+1
6.943511E+0;4.477080E+3;-2.476200E+1
6.425634E+0;4.477260E+3;-2.309830E+1
5.946382E+0;4.477740E+3;-2.190080E+1
5.502875E+0;4.478110E+3;-2.069260E+1
5.092447E+0;4.478540E+3;-1.906900E+1
4.712630E+0;4.478710E+3;-1.808570E+1
4.361141E+0;4.479290E+3;-1.695840E+1
4.035868E+0;4.479690E+3;-1.617860E+1
3.734856E+0;4.479890E+3;-1.491940E+1
3.456294E+0;4.480110E+3;-1.419510E+1
3.198508E+0;4.480460E+3;-1.323520E+1
2.959950E+0;4.480770E+3;-1.249660E+1
2.739184E+0;4.480900E+3;-1.175280E+1
2.534883E+0;4.481210E+3;-1.132200E+1
2.345821E+0;4.481320E+3;-1.051660E+1
2.170859E+0;4.481650E+3;-9.769510E+0
2.008947E+0;4.481660E+3;-9.332210E+0
1.859111E+0;4.481490E+3;-8.832200E+0
1.720450E+0;4.481740E+3;-8.399530E+0
1.592132E+0;4.481100E+3;-7.927080E+0
1.473384E+0;4.481040E+3;-7.161040E+0
1.363492E+0;4.481150E+3;-7.049370E+0
1.261797E+0;4.481020E+3;-6.618040E+0
1.167687E+0;4.480550E+3;-6.249410E+0
1.080595E+0;4.480740E+3;-5.901320E+0
1.000000E+0;4.480380E+3;-5.956230E+0
